Wavenumber,Intensity
3999.706,2.814378
4001.634,2.814034
4003.563,2.814523
4005.491,2.811674
4007.42,2.814844
4009.348,2.818172
4011.277,2.817738
4013.205,2.817542
4015.134,2.820618
4017.062,2.823588
4018.991,2.822322
4020.919,2.825348
4022.848,2.824519
4024.776,2.824135
4026.705,2.827139
4028.633,2.83287
4030.562,2.831078
4032.49,2.832572
4034.419,2.833005
4036.347,2.831559
4038.276,2.827692
4040.204,2.830042
4042.133,2.838114
4044.061,2.843967
4045.99,2.841539
4047.918,2.837311
4049.847,2.836847
4051.775,2.840649
4053.704,2.841438
4055.632,2.843548
4057.561,2.845402
4059.489,2.843624
4061.418,2.84213
4063.346,2.844756
4065.275,2.844443
4067.203,2.843753
4069.132,2.845434
4071.06,2.847359
4072.989,2.84709
4074.917,2.847245
4076.846,2.851608
4078.774,2.853954
4080.703,2.854473
4082.631,2.853162
4084.56,2.847599
4086.488,2.848046
4088.417,2.851466
4090.345,2.852853
4092.274,2.854601
4094.202,2.854472
4096.131,2.853157
4098.059,2.85484
4099.988,2.857229
4101.916,2.859695
4103.845,2.860515
4105.773,2.857884
4107.702,2.856515
4109.63,2.860605
4111.559,2.861974
4113.487,2.860023
4115.416,2.862895
4117.344,2.865945
4119.273,2.866736
4121.201,2.86379
4123.13,2.864145
4125.058,2.864837
4126.987,2.866314
4128.915,2.868264
4130.844,2.865119
4132.772,2.867761
4134.701,2.869436
4136.629,2.864502
4138.558,2.864214
4140.486,2.867481
4142.415,2.86613
4144.343,2.863267
4146.271,2.863012
4148.2,2.867328
4150.129,2.869631
4152.057,2.868973
4153.986,2.866188
4155.914,2.869906
4157.843,2.872189
4159.771,2.870129
4161.7,2.871262
4163.628,2.875224
4165.557,2.87813
4167.485,2.87748
4169.414,2.879119
4171.342,2.880647
4173.271,2.880845
4175.199,2.881703
4177.127,2.885016
4179.056,2.886178
4180.985,2.888151
4182.913,2.888718
4184.842,2.887678
4186.77,2.885644
4188.699,2.889925
4190.627,2.891693
4192.556,2.891651
4194.484,2.897825
4196.413,2.902232
4198.341,2.900896
4200.27,2.901238
4202.198,2.905411
4204.126,2.91087
4206.055,2.910454
4207.983,2.912139
4209.912,2.91661
4211.841,2.919034
4213.769,2.921311
4215.698,2.922421
4217.626,2.925057
4219.555,2.928208
4221.483,2.927904
4223.412,2.928613
4225.34,2.931479
4227.269,2.930061
4229.197,2.929752
4231.125,2.93189
4233.054,2.93467
4234.982,2.938776
4236.911,2.939933
4238.84,2.943135
4240.768,2.941439
4242.697,2.940193
4244.625,2.939267
4246.554,2.939641
4248.482,2.938396
4250.411,2.935824
4252.339,2.937133
4254.268,2.937617
4256.196,2.939552
4258.125,2.945218
4260.053,2.947157
4261.981,2.949677
4263.91,2.951233
4265.838,2.951947
4267.767,2.955569
4269.696,2.955519
4271.624,2.955031
4273.553,2.959993
4275.481,2.959563
4277.41,2.955103
4279.338,2.959032
4281.267,2.964727
4283.195,2.966694
4285.124,2.96699
4287.052,2.966033
4288.98,2.964801
4290.909,2.96618
4292.837,2.969913
4294.766,2.97044
4296.694,2.968251
4298.623,2.967155
4300.552,2.969128
4302.48,2.972195
4304.409,2.974008
4306.337,2.970945
4308.266,2.970955
4310.194,2.970986
4312.123,2.970313
4314.051,2.969454
4315.979,2.966703
4317.908,2.963835
4319.836,2.961722
4321.765,2.959506
4323.693,2.958743
4325.622,2.963365
4327.551,2.962871
4329.479,2.961407
4331.408,2.960004
4333.336,2.9622
4335.265,2.964898
4337.193,2.967668
4339.122,2.971972
4341.05,2.972792
4342.979,2.971453
4344.907,2.970073
4346.835,2.966583
4348.764,2.970893
4350.692,2.974599
4352.621,2.975692
4354.549,2.977412
4356.478,2.978851
4358.407,2.978582
4360.335,2.979074
4362.264,2.977091
4364.192,2.974606
4366.121,2.974885
4368.049,2.97816
4369.978,2.979079
4371.906,2.981588
4373.834,2.982711
4375.763,2.98235
4377.691,2.980395
4379.62,2.979227
4381.548,2.983527
4383.477,2.983639
4385.405,2.979844
4387.334,2.979173
4389.263,2.983246
4391.191,2.984626
4393.12,2.985132
4395.048,2.98285
4396.977,2.981878
4398.905,2.98341
4400.833,2.981256
4402.762,2.983377
4404.69,2.98839
4406.619,2.990259
4408.547,2.991487
4410.476,2.995186
4412.404,3.000284
4414.333,3.000767
4416.262,3.000059
4418.19,3.004921
4420.119,3.007413
4422.047,3.011541
4423.976,3.019312
4425.904,3.02446
4427.833,3.03205
4429.761,3.038311
4431.689,3.040283
4433.618,3.045557
4435.546,3.051813
4437.475,3.059918
4439.403,3.067713
4441.332,3.075516
4443.26,3.084057
4445.189,3.091392
4447.117,3.100538
4449.046,3.110129
4450.975,3.119739
4452.903,3.129673
4454.832,3.139233
4456.76,3.150318
4458.688,3.160951
4460.617,3.171741
4462.545,3.181682
4464.474,3.189594
4466.402,3.199371
4468.331,3.211547
4470.259,3.220774
4472.188,3.227838
4474.116,3.239013
4476.045,3.253082
4477.974,3.262678
4479.902,3.270968
4481.831,3.27865
4483.759,3.289778
4485.688,3.30124
4487.616,3.310506
4489.544,3.320848
4491.473,3.335952
4493.401,3.347678
4495.33,3.359131
4497.258,3.369711
4499.187,3.381185
4501.115,3.393251
4503.044,3.403252
4504.972,3.414512
4506.901,3.427535
4508.83,3.440428
4510.758,3.455237
4512.687,3.470354
4514.615,3.480207
4516.543,3.489718
4518.472,3.504996
4520.4,3.522428
4522.329,3.536054
4524.257,3.544706
4526.186,3.55519
4528.114,3.569799
4530.043,3.58173
4531.971,3.595735
4533.9,3.612874
4535.828,3.626609
4537.757,3.64171
4539.686,3.659127
4541.614,3.671054
4543.542,3.68445
4545.471,3.702434
4547.399,3.715781
4549.328,3.729759
4551.256,3.74389
4553.185,3.759956
4555.113,3.774355
4557.042,3.788563
4558.97,3.808042
4560.899,3.827051
4562.827,3.841468
4564.756,3.853748
4566.685,3.86524
4568.613,3.878772
4570.542,3.89459
4572.47,3.910017
4574.398,3.919048
4576.327,3.930655
4578.255,3.940022
4580.184,3.947377
4582.112,3.95889
4584.041,3.971244
4585.969,3.981514
4587.898,3.988044
4589.826,3.995666
4591.755,4.004018
4593.683,4.013263
4595.612,4.021486
4597.54,4.029949
4599.469,4.036902
4601.397,4.044032
4603.326,4.048602
4605.254,4.054847
4607.183,4.063772
4609.111,4.071184
4611.04,4.077729
4612.968,4.082539
4614.897,4.086617
4616.825,4.092251
4618.754,4.099816
4620.682,4.105685
4622.611,4.112201
4624.539,4.119466
4626.468,4.126594
4628.396,4.134103
4630.325,4.141643
4632.253,4.143634
4634.182,4.146287
4636.11,4.148475
4638.039,4.152568
4639.967,4.156115
4641.896,4.158695
4643.824,4.158799
4645.753,4.160107
4647.681,4.159548
4649.61,4.156852
4651.538,4.153054
4653.467,4.145168
4655.396,4.137511
4657.324,4.128933
4659.252,4.116428
4661.181,4.107227
4663.109,4.096991
4665.038,4.088646
4666.966,4.089155
4668.895,4.096477
4670.823,4.104201
4672.752,4.116859
4674.68,4.131804
4676.609,4.150173
4678.537,4.16738
4680.466,4.180437
4682.394,4.193798
4684.323,4.204458
4686.251,4.21255
4688.18,4.219502
4690.108,4.224882
4692.037,4.226214
4693.965,4.227561
4695.894,4.232023
4697.822,4.22972
4699.751,4.230322
4701.679,4.232742
4703.608,4.232213
4705.536,4.231101
4707.465,4.229035
4709.393,4.225832
4711.322,4.226549
4713.25,4.224135
4715.179,4.222453
4717.107,4.215969
4719.036,4.205661
4720.964,4.199613
4722.893,4.191146
4724.821,4.183744
4726.75,4.179542
4728.678,4.170094
4730.606,4.163837
4732.535,4.160945
4734.464,4.156495
4736.392,4.151155
4738.321,4.14953
4740.249,4.146699
4742.178,4.142214
4744.106,4.140381
4746.035,4.13457
4747.963,4.126414
4749.892,4.125819
4751.82,4.122918
4753.749,4.120554
4755.677,4.115829
4757.605,4.109514
4759.534,4.103297
4761.463,4.094416
4763.391,4.084213
4765.32,4.077906
4767.248,4.070518
4769.177,4.060338
4771.105,4.049901
4773.034,4.038897
4774.962,4.027002
4776.891,4.018004
4778.819,4.013236
4780.748,4.00861
4782.676,4.004979
4784.604,4.00398
4786.533,4.001276
4788.462,3.99969
4790.39,3.996723
4792.319,3.993724
4794.247,3.990064
4796.176,3.986693
4798.104,3.97693
4800.033,3.973078
4801.961,3.96767
4803.89,3.960091
4805.818,3.957335
4807.747,3.952695
4809.675,3.939525
4811.604,3.925292
4813.532,3.917334
4815.46,3.911321
4817.389,3.902407
4819.317,3.889287
4821.246,3.880566
4823.175,3.871531
4825.103,3.862106
4827.032,3.857438
4828.96,3.848993
4830.889,3.840945
4832.817,3.834761
4834.746,3.826968
4836.674,3.817919
4838.603,3.810379
4840.531,3.799453
4842.459,3.785368
4844.388,3.775329
4846.316,3.765287
4848.245,3.751472
4850.174,3.742688
4852.102,3.730951
4854.031,3.720047
4855.959,3.709694
4857.888,3.699374
4859.816,3.690253
4861.745,3.687985
4863.673,3.683716
4865.602,3.677047
4867.53,3.670035
4869.458,3.667182
4871.387,3.667714
4873.315,3.669015
4875.244,3.669804
4877.172,3.673793
4879.101,3.679093
4881.03,3.681727
4882.958,3.684597
4884.887,3.685889
4886.815,3.689903
4888.744,3.693064
4890.672,3.694668
4892.601,3.697405
4894.529,3.701827
4896.458,3.706
4898.386,3.709033
4900.314,3.711479
4902.243,3.712026
4904.171,3.715785
4906.1,3.717971
4908.028,3.7202
4909.957,3.722392
4911.886,3.721992
4913.814,3.723596
4915.743,3.722854
4917.671,3.7219
4919.6,3.719938
4921.528,3.718848
4923.457,3.720903
4925.385,3.719453
4927.313,3.716705
4929.242,3.714999
4931.17,3.715293
4933.099,3.715515
4935.027,3.716697
4936.956,3.717081
4938.885,3.712424
4940.813,3.708812
4942.742,3.707932
4944.67,3.702988
4946.599,3.694218
4948.527,3.682088
4950.456,3.66996
4952.384,3.654245
4954.313,3.636728
4956.241,3.617656
4958.169,3.598105
4960.098,3.579607
4962.026,3.562582
4963.955,3.554705
4965.883,3.553216
4967.812,3.559211
4969.74,3.564008
4971.669,3.572053
4973.598,3.577573
4975.526,3.581661
4977.455,3.585947
4979.383,3.590085
4981.312,3.59506
4983.24,3.602374
4985.168,3.611092
4987.097,3.617198
4989.025,3.625766
4990.954,3.638215
4992.882,3.647197
4994.811,3.655933
4996.739,3.667825
4998.668,3.683009
5000.597,3.690376
5002.525,3.69639
5004.454,3.703611
5006.382,3.709009
5008.311,3.714319
5010.239,3.719335
5012.167,3.722537
5014.096,3.721047
5016.024,3.719195
5017.953,3.719706
5019.881,3.726335
5021.81,3.729161
5023.738,3.729192
5025.667,3.736556
5027.596,3.743732
5029.524,3.748016
5031.452,3.751436
5033.381,3.752825
5035.31,3.7548
5037.238,3.756833
5039.167,3.759709
5041.095,3.760319
5043.023,3.758774
5044.952,3.756472
5046.88,3.757716
5048.809,3.758718
5050.737,3.758969
5052.666,3.754923
5054.595,3.748818
5056.523,3.742497
5058.451,3.736961
5060.38,3.732906
5062.309,3.733281
5064.237,3.729694
5066.166,3.730452
5068.094,3.731874
5070.022,3.731222
5071.951,3.732362
5073.879,3.733497
5075.808,3.728852
5077.736,3.727952
5079.665,3.729176
5081.593,3.727099
5083.522,3.727105
5085.45,3.727077
5087.379,3.720675
5089.308,3.718642
5091.236,3.715847
5093.165,3.71154
5095.093,3.710871
5097.021,3.711102
5098.95,3.709781
5100.878,3.710441
5102.807,3.71087
5104.735,3.714166
5106.664,3.718323
5108.592,3.720315
5110.521,3.723531
5112.449,3.727824
5114.378,3.725963
5116.307,3.726416
5118.235,3.731905
5120.163,3.735486
5122.092,3.738929
5124.021,3.741132
5125.949,3.741564
5127.877,3.741915
5129.806,3.74681
5131.734,3.75038
5133.663,3.7495
5135.591,3.749319
5137.52,3.746145
5139.448,3.742476
5141.377,3.740896
5143.305,3.738621
5145.234,3.733557
5147.162,3.731966
5149.091,3.72823
5151.02,3.721553
5152.948,3.715386
5154.876,3.715775
5156.805,3.717861
5158.733,3.713555
5160.662,3.711477
5162.59,3.71102
5164.519,3.714219
5166.447,3.711231
5168.376,3.710526
5170.304,3.712667
5172.233,3.711935
5174.161,3.710419
5176.09,3.706125
5178.019,3.704195
5179.947,3.705195
5181.875,3.706052
5183.804,3.706811
5185.732,3.706705
5187.661,3.700238
5189.589,3.702157
5191.518,3.702616
5193.446,3.702078
5195.375,3.701087
5197.303,3.708711
5199.232,3.706678
5201.16,3.70581
5203.089,3.706709
5205.018,3.715848
5206.946,3.725446
5208.874,3.719261
5210.803,3.709203
5212.731,3.705926
5214.66,3.7054
5216.588,3.706745
5218.517,3.708499
5220.445,3.70599
5222.374,3.707278
5224.302,3.716337
5226.231,3.722998
5228.159,3.713984
5230.088,3.715139
5232.016,3.720028
5233.945,3.719041
5235.873,3.72231
5237.802,3.724259
5239.73,3.723346
5241.659,3.722753
5243.587,3.734783
5245.516,3.739654
5247.444,3.73942
5249.373,3.740711
5251.301,3.73394
5253.229,3.73866
5255.158,3.747242
5257.087,3.738177
5259.015,3.733733
5260.944,3.739707
5262.872,3.744083
5264.801,3.749977
5266.729,3.737944
5268.658,3.736092
5270.586,3.731967
5272.515,3.72984
5274.443,3.729536
5276.372,3.726523
5278.3,3.730349
5280.229,3.736979
5282.157,3.731963
5284.086,3.733555
5286.014,3.736366
5287.943,3.731006
5289.871,3.738819
5291.8,3.739617
5293.729,3.72981
5295.657,3.726871
5297.585,3.726168
5299.514,3.726717
5301.442,3.721576
5303.371,3.716049
5305.299,3.7115
5307.228,3.71627
5309.156,3.715593
5311.085,3.711205
5313.013,3.717557
5314.941,3.725486
5316.87,3.735628
5318.799,3.74442
5320.727,3.752146
5322.656,3.757497
5324.584,3.758836
5326.513,3.768041
5328.441,3.775338
5330.37,3.765804
5332.298,3.764075
5334.227,3.75494
5336.155,3.751652
5338.084,3.757273
5340.012,3.74883
5341.94,3.728792
5343.869,3.732593
5345.798,3.730387
5347.726,3.70887
5349.655,3.690798
5351.583,3.676262
5353.512,3.678338
5355.44,3.666326
5357.369,3.647336
5359.297,3.641819
5361.226,3.636844
5363.154,3.6298
5365.083,3.619633
5367.011,3.608988
5368.939,3.599928
5370.868,3.589223
5372.797,3.586122
5374.725,3.587117
5376.654,3.586334
5378.582,3.577504
5380.511,3.56374
5382.439,3.563875
5384.368,3.563322
5386.296,3.565751
5388.225,3.551742
5390.153,3.540833
5392.082,3.534783
5394.01,3.536797
5395.938,3.526211
5397.867,3.514391
5399.796,3.498827
5401.724,3.491867
5403.652,3.486829
5405.581,3.477979
5407.51,3.464725
5409.438,3.465763
5411.367,3.459367
5413.295,3.447775
5415.224,3.433193
5417.152,3.412011
5419.081,3.39922
5421.009,3.392649
5422.938,3.392928
5424.866,3.389254
5426.795,3.384174
5428.723,3.389655
5430.651,3.384138
5432.58,3.374973
5434.509,3.37728
5436.437,3.376193
5438.366,3.368573
5440.294,3.373246
5442.223,3.371425
5444.151,3.364635
5446.08,3.370298
5448.008,3.364717
5449.937,3.360924
5451.865,3.351261
5453.793,3.346213
5455.722,3.350687
5457.65,3.350091
5459.579,3.345705
5461.508,3.347849
5463.436,3.342778
5465.365,3.337082
5467.293,3.336678
5469.222,3.336346
5471.15,3.328614
5473.079,3.324395
5475.007,3.329182
5476.936,3.326266
5478.864,3.31347
5480.792,3.311189
5482.721,3.307415
5484.649,3.304111
5486.578,3.29971
5488.507,3.297112
5490.435,3.294491
5492.363,3.302605
5494.292,3.303899
5496.221,3.294922
5498.149,3.296874
5500.078,3.299673
5502.006,3.297658
5503.935,3.297259
5505.863,3.298774
5507.792,3.303137
5509.72,3.301664
5511.648,3.300306
5513.577,3.30152
5515.505,3.305557
5517.434,3.308698
5519.362,3.30856
5521.291,3.308233
5523.22,3.30762
5525.148,3.301898
5527.077,3.303715
5529.005,3.304295
5530.934,3.303401
5532.862,3.303298
5534.791,3.303304
5536.719,3.301787
5538.647,3.297757
5540.576,3.29755
5542.504,3.299979
5544.433,3.299854
5546.361,3.297224
5548.29,3.29523
5550.219,3.295615
5552.147,3.298154
5554.076,3.298048
5556.004,3.298138
5557.933,3.297305
5559.861,3.299644
5561.79,3.30431
5563.718,3.307408
5565.646,3.310236
5567.575,3.314147
5569.503,3.318853
5571.432,3.326082
5573.36,3.334247
5575.289,3.336114
5577.218,3.342873
5579.146,3.348594
5581.074,3.352373
5583.003,3.357398
5584.932,3.360918
5586.86,3.362692
5588.789,3.364978
5590.717,3.36695
5592.646,3.361242
5594.574,3.358253
5596.502,3.359153
5598.431,3.35594
5600.359,3.350804
5602.288,3.345326
5604.216,3.337976
5606.145,3.331817
5608.073,3.3248
5610.002,3.319216
5611.931,3.313424
5613.859,3.304754
5615.788,3.30019
5617.716,3.296498
5619.645,3.292305
5621.573,3.287316
5623.501,3.280037
5625.43,3.273467
5627.358,3.266758
5629.287,3.264774
5631.215,3.257618
5633.144,3.250827
5635.072,3.246857
5637.001,3.245387
5638.93,3.240118
5640.858,3.232388
5642.786,3.224794
5644.715,3.216425
5646.644,3.211757
5648.572,3.202503
5650.5,3.193408
5652.429,3.185602
5654.357,3.176833
5656.286,3.173023
5658.214,3.169332
5660.143,3.164155
5662.071,3.161581
5664.0,3.163986
5665.929,3.164792
5667.857,3.166402
5669.785,3.169364
5671.714,3.170404
5673.643,3.172543
5675.571,3.173152
5677.5,3.17357
5679.428,3.177547
5681.356,3.182041
5683.285,3.186183
5685.213,3.188439
5687.142,3.193437
5689.07,3.197506
5690.999,3.201984
5692.927,3.209643
5694.856,3.213178
5696.784,3.216418
5698.713,3.223621
5700.642,3.230292
5702.57,3.234251
5704.499,3.239343
5706.427,3.248363
5708.355,3.255235
5710.284,3.260845
5712.212,3.266401
5714.141,3.269257
5716.069,3.270709
5717.998,3.269865
5719.926,3.265353
5721.855,3.259428
5723.783,3.253389
5725.712,3.243173
5727.641,3.228753
5729.569,3.21801
5731.497,3.209916
5733.426,3.203958
5735.354,3.201561
5737.283,3.199401
5739.211,3.194654
5741.14,3.191837
5743.068,3.190014
5744.997,3.186962
5746.925,3.182133
5748.854,3.176712
5750.782,3.170909
5752.711,3.168912
5754.639,3.167906
5756.568,3.165128
5758.496,3.165357
5760.425,3.165022
5762.354,3.163448
5764.282,3.160752
5766.21,3.159991
5768.139,3.156186
5770.067,3.154453
5771.996,3.154997
5773.924,3.156976
5775.853,3.157907
5777.781,3.159506
5779.71,3.161224
5781.638,3.161212
5783.567,3.159587
5785.495,3.162271
5787.424,3.163685
5789.353,3.163967
5791.281,3.163304
5793.209,3.163111
5795.138,3.162796
5797.066,3.166178
5798.995,3.166943
5800.923,3.163403
5802.852,3.163429
5804.78,3.1655
5806.709,3.168026
5808.637,3.170697
5810.566,3.172051
5812.494,3.174213
5814.423,3.175675
5816.352,3.177182
5818.28,3.179012
5820.208,3.177853
5822.137,3.178846
5824.065,3.182127
5825.994,3.184846
5827.922,3.190351
5829.851,3.19512
5831.779,3.198412
5833.708,3.202795
5835.636,3.206822
5837.565,3.21003
5839.493,3.216443
5841.422,3.221361
5843.35,3.229486
5845.279,3.237583
5847.207,3.242379
5849.136,3.252542
5851.064,3.267311
5852.993,3.280573
5854.921,3.293831
5856.85,3.313442
5858.778,3.336338
5860.707,3.360905
5862.635,3.386815
5864.563,3.408535
5866.492,3.438322
5868.421,3.472245
5870.349,3.509453
5872.278,3.548015
5874.206,3.590651
5876.135,3.638413
5878.063,3.687492
5879.992,3.735469
5881.92,3.786206
5883.849,3.834089
5885.777,3.879407
5887.706,3.927434
5889.634,3.97625
5891.563,4.016868
5893.491,4.055621
5895.42,4.089525
5897.348,4.112384
5899.277,4.136822
5901.205,4.164737
5903.134,4.197
5905.063,4.232475
5906.991,4.264184
5908.919,4.302
5910.848,4.350888
5912.776,4.406881
5914.705,4.468423
5916.633,4.528859
5918.562,4.596442
5920.49,4.676392
5922.419,4.757428
5924.347,4.83865
5926.276,4.916564
5928.204,4.997569
5930.133,5.079907
5932.061,5.158055
5933.99,5.234063
5935.918,5.304998
5937.847,5.372506
5939.775,5.439532
5941.704,5.503321
5943.632,5.564424
5945.561,5.620552
5947.489,5.678709
5949.418,5.738821
5951.346,5.794171
5953.274,5.845103
5955.203,5.896697
5957.132,5.948435
5959.06,6.00776
5960.989,6.068715
5962.917,6.126402
5964.846,6.181939
5966.774,6.241092
5968.703,6.293021
5970.631,6.346908
5972.56,6.401054
5974.488,6.454495
5976.417,6.503545
5978.345,6.553567
5980.273,6.601903
5982.202,6.650102
5984.131,6.69265
5986.059,6.741749
5987.988,6.787595
5989.916,6.831702
5991.845,6.871199
5993.773,6.913114
5995.702,6.953587
5997.63,6.995
5999.559,7.032866
6001.487,7.069344
6003.416,7.103196
6005.344,7.14262
6007.272,7.181764
6009.201,7.22399
6011.13,7.260775
6013.058,7.29386
6014.986,7.323374
6016.915,7.35869
6018.844,7.392138
6020.772,7.426087
6022.701,7.457238
6024.629,7.488634
6026.558,7.520032
6028.486,7.550947
6030.415,7.577946
6032.343,7.604987
6034.271,7.631109
6036.2,7.66056
6038.129,7.684235
6040.057,7.707407
6041.985,7.72998
6043.914,7.755992
6045.843,7.779944
6047.771,7.802368
6049.7,7.825283
6051.628,7.847901
6053.557,7.868104
6055.485,7.89154
6057.414,7.910226
6059.342,7.927163
6061.271,7.945515
6063.199,7.965257
6065.128,7.978509
6067.056,7.999889
6068.984,8.016043
6070.913,8.02579
6072.842,8.038714
6074.77,8.060604
6076.698,8.077922
6078.627,8.09028
6080.556,8.102578
6082.484,8.117285
6084.413,8.128328
6086.341,8.141153
6088.27,8.150257
6090.198,8.161703
6092.126,8.171453
6094.055,8.181952
6095.983,8.187747
6097.912,8.198122
6099.841,8.206239
6101.769,8.216751
6103.697,8.227996
6105.626,8.239429
6107.555,8.246007
6109.483,8.255492
6111.412,8.263573
6113.34,8.270368
6115.269,8.283378
6117.197,8.294268
6119.125,8.304825
6121.054,8.321986
6122.982,8.331768
6124.911,8.344726
6126.84,8.356634
6128.768,8.371487
6130.696,8.388254
6132.625,8.404593
6134.554,8.420485
6136.482,8.438881
6138.41,8.454379
6140.339,8.470161
6142.268,8.48306
6144.196,8.497973
6146.125,8.512063
6148.053,8.526995
6149.981,8.539987
6151.91,8.558065
6153.839,8.572016
6155.767,8.587917
6157.695,8.603568
6159.624,8.616398
6161.553,8.630729
6163.481,8.648811
6165.409,8.662518
