Wavenumber,Intensity
3999.706,1.920663
4001.634,1.922355
4003.563,1.92263
4005.491,1.924587
4007.42,1.926945
4009.348,1.921731
4011.277,1.923925
4013.205,1.928321
4015.134,1.927797
4017.062,1.930084
4018.991,1.931489
4020.919,1.932453
4022.848,1.930486
4024.776,1.931051
4026.705,1.935005
4028.633,1.936054
4030.562,1.933882
4032.49,1.934406
4034.419,1.938314
4036.347,1.938462
4038.276,1.93507
4040.204,1.935007
4042.133,1.941301
4044.061,1.943384
4045.99,1.940289
4047.918,1.940134
4049.847,1.942866
4051.775,1.946506
4053.704,1.944164
4055.632,1.942469
4057.561,1.942548
4059.489,1.941544
4061.418,1.944925
4063.346,1.945733
4065.275,1.947495
4067.203,1.950341
4069.132,1.945801
4071.06,1.946818
4072.989,1.948117
4074.917,1.948054
4076.846,1.949275
4078.774,1.949654
4080.703,1.949353
4082.631,1.950302
4084.56,1.954265
4086.488,1.956757
4088.417,1.958294
4090.345,1.954955
4092.274,1.951928
4094.202,1.954632
4096.131,1.952783
4098.059,1.953567
4099.988,1.953417
4101.916,1.955303
4103.845,1.957096
4105.773,1.958886
4107.702,1.957656
4109.63,1.956693
4111.559,1.956971
4113.487,1.961167
4115.416,1.961085
4117.344,1.957994
4119.273,1.956367
4121.201,1.959666
4123.13,1.962807
4125.058,1.964304
4126.987,1.962036
4128.915,1.962679
4130.844,1.963041
4132.772,1.960527
4134.701,1.960476
4136.629,1.963668
4138.558,1.966416
4140.486,1.96661
4142.415,1.965868
4144.343,1.963185
4146.271,1.962885
4148.2,1.96473
4150.129,1.965633
4152.057,1.965772
4153.986,1.96763
4155.914,1.967662
4157.843,1.965467
4159.771,1.965222
4161.7,1.969311
4163.628,1.970202
4165.557,1.968884
4167.485,1.971838
4169.414,1.970873
4171.342,1.97116
4173.271,1.972889
4175.199,1.974267
4177.127,1.976682
4179.056,1.976495
4180.985,1.977934
4182.913,1.978717
4184.842,1.977714
4186.77,1.977704
4188.699,1.981627
4190.627,1.98491
4192.556,1.986839
4194.484,1.98728
4196.413,1.98755
4198.341,1.990025
4200.27,1.992043
4202.198,1.996319
4204.126,1.997118
4206.055,1.998321
4207.983,1.997764
4209.912,1.999472
4211.841,1.999266
4213.769,2.001335
4215.698,2.003981
4217.626,2.005322
4219.555,2.012084
4221.483,2.013894
4223.412,2.012241
4225.34,2.012456
4227.269,2.013975
4229.197,2.015133
4231.125,2.011979
4233.054,2.014195
4234.982,2.016031
4236.911,2.018805
4238.84,2.021174
4240.768,2.021012
4242.697,2.021362
4244.625,2.020866
4246.554,2.017604
4248.482,2.018934
4250.411,2.023054
4252.339,2.024085
4254.268,2.021028
4256.196,2.02159
4258.125,2.020237
4260.053,2.020681
4261.981,2.025421
4263.91,2.028821
4265.838,2.029278
4267.767,2.030369
4269.696,2.032957
4271.624,2.03185
4273.553,2.030321
4275.481,2.030136
4277.41,2.029212
4279.338,2.03186
4281.267,2.033693
4283.195,2.03485
4285.124,2.03673
4287.052,2.03647
4288.98,2.037514
4290.909,2.040351
4292.837,2.040301
4294.766,2.041235
4296.694,2.044391
4298.623,2.042097
4300.552,2.040312
4302.48,2.039083
4304.409,2.035829
4306.337,2.035077
4308.266,2.039028
4310.194,2.040228
4312.123,2.041494
4314.051,2.039694
4315.979,2.036615
4317.908,2.038878
4319.836,2.036248
4321.765,2.033606
4323.693,2.035165
4325.622,2.035938
4327.551,2.033391
4329.479,2.034986
4331.408,2.037846
4333.336,2.038797
4335.265,2.04054
4337.193,2.040711
4339.122,2.042246
4341.05,2.042055
4342.979,2.041159
4344.907,2.041867
4346.835,2.044495
4348.764,2.046402
4350.692,2.04683
4352.621,2.043652
4354.549,2.046135
4356.478,2.044627
4358.407,2.044634
4360.335,2.04674
4362.264,2.045789
4364.192,2.045761
4366.121,2.04274
4368.049,2.043765
4369.978,2.043979
4371.906,2.044157
4373.834,2.04436
4375.763,2.043608
4377.691,2.04443
4379.62,2.044878
4381.548,2.049679
4383.477,2.049012
4385.405,2.045121
4387.334,2.046502
4389.263,2.045952
4391.191,2.044709
4393.12,2.046474
4395.048,2.05049
4396.977,2.049904
4398.905,2.048312
4400.833,2.049984
4402.762,2.050887
4404.69,2.051993
4406.619,2.055822
4408.547,2.053844
4410.476,2.049946
4412.404,2.051864
4414.333,2.058705
4416.262,2.062329
4418.19,2.062396
4420.119,2.061281
4422.047,2.064162
4423.976,2.0706
4425.904,2.075896
4427.833,2.07822
4429.761,2.080572
4431.689,2.083006
4433.618,2.086347
4435.546,2.093605
4437.475,2.096029
4439.403,2.097257
4441.332,2.104284
4443.26,2.112154
4445.189,2.116046
4447.117,2.121264
4449.046,2.127847
4450.975,2.136282
4452.903,2.143813
4454.832,2.147219
4456.76,2.157284
4458.688,2.165585
4460.617,2.170865
4462.545,2.176319
4464.474,2.1823
4466.402,2.189624
4468.331,2.196164
4470.259,2.204821
4472.188,2.211343
4474.116,2.214611
4476.045,2.221611
4477.974,2.231783
4479.902,2.239326
4481.831,2.244273
4483.759,2.249827
4485.688,2.255833
4487.616,2.263644
4489.544,2.267856
4491.473,2.275564
4493.401,2.288
4495.33,2.297912
4497.258,2.302048
4499.187,2.305984
4501.115,2.315883
4503.044,2.326894
4504.972,2.334934
4506.901,2.343302
4508.83,2.351621
4510.758,2.359713
4512.687,2.366547
4514.615,2.37404
4516.543,2.382204
4518.472,2.389999
4520.4,2.399244
4522.329,2.410983
4524.257,2.420735
4526.186,2.428576
4528.114,2.437712
4530.043,2.446844
4531.971,2.453181
4533.9,2.463891
4535.828,2.477304
4537.757,2.486329
4539.686,2.495298
4541.614,2.505075
4543.542,2.517987
4545.471,2.525778
4547.399,2.532539
4549.328,2.542265
4551.256,2.553862
4553.185,2.565235
4555.113,2.576601
4557.042,2.588339
4558.97,2.602294
4560.899,2.614171
4562.827,2.621344
4564.756,2.63245
4566.685,2.64025
4568.613,2.645785
4570.542,2.653572
4572.47,2.662753
4574.398,2.670548
4576.327,2.677614
4578.255,2.687508
4580.184,2.695726
4582.112,2.70019
4584.041,2.708244
4585.969,2.713148
4587.898,2.714669
4589.826,2.720751
4591.755,2.729311
4593.683,2.735709
4595.612,2.737223
4597.54,2.742316
4599.469,2.748915
4601.397,2.757249
4603.326,2.762365
4605.254,2.765745
4607.183,2.770055
4609.111,2.77208
4611.04,2.774478
4612.968,2.77675
4614.897,2.779384
4616.825,2.784354
4618.754,2.789006
4620.682,2.794251
4622.611,2.801696
4624.539,2.807004
4626.468,2.809228
4628.396,2.813666
4630.325,2.815787
4632.253,2.81656
4634.182,2.821888
4636.11,2.827081
4638.039,2.827457
4639.967,2.830233
4641.896,2.830264
4643.824,2.829298
4645.753,2.830045
4647.681,2.828656
4649.61,2.829426
4651.538,2.827451
4653.467,2.823673
4655.396,2.818006
4657.324,2.812017
4659.252,2.803904
4661.181,2.793346
4663.109,2.785167
4665.038,2.779499
4666.966,2.777971
4668.895,2.782493
4670.823,2.790534
4672.752,2.798267
4674.68,2.811022
4676.609,2.829145
4678.537,2.838988
4680.466,2.847611
4682.394,2.856635
4684.323,2.864032
4686.251,2.869266
4688.18,2.873205
4690.108,2.873985
4692.037,2.877225
4693.965,2.878911
4695.894,2.87913
4697.822,2.883603
4699.751,2.883925
4701.679,2.881024
4703.608,2.882345
4705.536,2.886511
4707.465,2.884663
4709.393,2.881895
4711.322,2.882859
4713.25,2.879728
4715.179,2.876485
4717.107,2.87345
4719.036,2.867311
4720.964,2.86236
4722.893,2.856865
4724.821,2.852002
4726.75,2.846982
4728.678,2.843759
4730.606,2.838598
4732.535,2.836727
4734.464,2.833662
4736.392,2.831979
4738.321,2.830989
4740.249,2.829545
4742.178,2.82461
4744.106,2.818271
4746.035,2.816186
4747.963,2.814247
4749.892,2.814635
4751.82,2.811972
4753.749,2.805889
4755.677,2.802228
4757.605,2.799233
4759.534,2.795162
4761.463,2.790781
4763.391,2.78646
4765.32,2.781962
4767.248,2.776976
4769.177,2.771366
4771.105,2.761616
4773.034,2.75193
4774.962,2.744157
4776.891,2.740326
4778.819,2.73463
4780.748,2.731971
4782.676,2.730865
4784.604,2.727331
4786.533,2.72856
4788.462,2.727542
4790.39,2.72296
4792.319,2.722504
4794.247,2.718678
4796.176,2.714133
4798.104,2.713518
4800.033,2.712004
4801.961,2.707362
4803.89,2.702263
4805.818,2.698935
4807.747,2.693748
4809.675,2.687269
4811.604,2.678086
4813.532,2.667203
4815.46,2.66358
4817.389,2.65862
4819.317,2.649932
4821.246,2.643988
4823.175,2.638683
4825.103,2.635441
4827.032,2.630743
4828.96,2.623188
4830.889,2.618362
4832.817,2.614405
4834.746,2.607569
4836.674,2.602643
4838.603,2.600177
4840.531,2.592355
4842.459,2.581679
4844.388,2.575247
4846.316,2.568794
4848.245,2.559324
4850.174,2.552974
4852.102,2.543113
4854.031,2.536193
4855.959,2.530141
4857.888,2.52149
4859.816,2.516873
4861.745,2.51476
4863.673,2.511786
4865.602,2.508492
4867.53,2.505059
4869.458,2.503786
4871.387,2.504796
4873.315,2.507615
4875.244,2.510083
4877.172,2.511106
4879.101,2.512323
4881.03,2.512142
4882.958,2.513499
4884.887,2.515865
4886.815,2.519771
4888.744,2.521073
4890.672,2.525629
4892.601,2.532564
4894.529,2.533804
4896.458,2.53154
4898.386,2.531331
4900.314,2.534419
4902.243,2.535724
4904.171,2.536279
4906.1,2.540805
4908.028,2.543124
4909.957,2.540148
4911.886,2.541531
4913.814,2.543587
4915.743,2.544723
4917.671,2.547072
4919.6,2.542679
4921.528,2.540765
4923.457,2.541831
4925.385,2.541952
4927.313,2.540968
4929.242,2.540589
4931.17,2.539301
4933.099,2.537376
4935.027,2.536432
4936.956,2.537016
4938.885,2.536093
4940.813,2.532531
4942.742,2.531448
4944.67,2.528568
4946.599,2.521465
4948.527,2.512716
4950.456,2.504697
4952.384,2.494923
4954.313,2.482846
4956.241,2.468334
4958.169,2.45501
4960.098,2.44436
4962.026,2.437586
4963.955,2.432584
4965.883,2.430275
4967.812,2.431408
4969.74,2.436609
4971.669,2.443617
4973.598,2.444577
4975.526,2.449782
4977.455,2.453641
4979.383,2.457017
4981.312,2.460579
4983.24,2.465626
4985.168,2.472165
4987.097,2.476576
4989.025,2.482288
4990.954,2.488608
4992.882,2.492641
4994.811,2.500609
4996.739,2.508257
4998.668,2.511832
5000.597,2.519113
5002.525,2.527483
5004.454,2.534534
5006.382,2.538427
5008.311,2.541718
5010.239,2.54206
5012.167,2.542269
5014.096,2.543524
5016.024,2.548045
5017.953,2.547533
5019.881,2.548082
5021.81,2.550542
5023.738,2.551641
5025.667,2.554318
5027.596,2.562505
5029.524,2.566386
5031.452,2.569908
5033.381,2.56949
5035.31,2.567688
5037.238,2.571991
5039.167,2.573053
5041.095,2.569822
5043.023,2.569118
5044.952,2.57188
5046.88,2.571601
5048.809,2.571905
5050.737,2.568667
5052.666,2.565703
5054.595,2.564627
5056.523,2.561652
5058.451,2.557243
5060.38,2.555808
5062.309,2.552344
5064.237,2.551285
5066.166,2.550643
5068.094,2.552142
5070.022,2.553113
5071.951,2.553248
5073.879,2.551443
5075.808,2.551495
5077.736,2.549989
5079.665,2.55159
5081.593,2.549492
5083.522,2.548481
5085.45,2.549521
5087.379,2.544421
5089.308,2.541718
5091.236,2.542034
5093.165,2.541088
5095.093,2.541129
5097.021,2.540926
5098.95,2.538353
5100.878,2.537319
5102.807,2.539167
5104.735,2.541166
5106.664,2.545407
5108.592,2.547895
5110.521,2.548941
5112.449,2.551999
5114.378,2.551977
5116.307,2.552629
5118.235,2.554208
5120.163,2.556598
5122.092,2.557969
5124.021,2.561936
5125.949,2.56581
5127.877,2.566595
5129.806,2.568117
5131.734,2.567962
5133.663,2.567271
5135.591,2.565712
5137.52,2.563624
5139.448,2.562313
5141.377,2.560635
5143.305,2.557079
5145.234,2.555981
5147.162,2.556217
5149.091,2.55377
5151.02,2.547903
5152.948,2.545278
5154.876,2.543699
5156.805,2.542485
5158.733,2.542577
5160.662,2.540244
5162.59,2.540372
5164.519,2.540522
5166.447,2.541285
5168.376,2.544746
5170.304,2.54553
5172.233,2.546278
5174.161,2.541165
5176.09,2.538512
5178.019,2.539558
5179.947,2.538518
5181.875,2.533596
5183.804,2.536881
5185.732,2.534798
5187.661,2.536887
5189.589,2.533172
5191.518,2.531984
5193.446,2.536188
5195.375,2.543059
5197.303,2.543551
5199.232,2.539355
5201.16,2.54019
5203.089,2.544821
5205.018,2.55585
5206.946,2.54667
5208.874,2.540076
5210.803,2.539619
5212.731,2.539447
5214.66,2.53879
5216.588,2.542776
5218.517,2.542853
5220.445,2.541819
5222.374,2.545764
5224.302,2.554373
5226.231,2.545489
5228.159,2.545402
5230.088,2.550373
5232.016,2.549216
5233.945,2.54569
5235.873,2.548022
5237.802,2.554258
5239.73,2.551592
5241.659,2.557486
5243.587,2.561759
5245.516,2.563512
5247.444,2.56901
5249.373,2.555026
5251.301,2.55779
5253.229,2.565698
5255.158,2.556319
5257.087,2.551939
5259.015,2.563009
5260.944,2.571852
5262.872,2.574351
5264.801,2.562853
5266.729,2.566656
5268.658,2.564983
5270.586,2.55815
5272.515,2.559922
5274.443,2.559855
5276.372,2.558429
5278.3,2.563269
5280.229,2.563038
5282.157,2.562941
5284.086,2.566811
5286.014,2.561092
5287.943,2.565553
5289.871,2.565499
5291.8,2.555095
5293.729,2.560632
5295.657,2.559026
5297.585,2.560828
5299.514,2.556233
5301.442,2.547729
5303.371,2.546395
5305.299,2.553907
5307.228,2.550709
5309.156,2.539314
5311.085,2.543779
5313.013,2.547232
5314.941,2.555545
5316.87,2.560321
5318.799,2.565773
5320.727,2.573692
5322.656,2.577414
5324.584,2.583015
5326.513,2.590552
5328.441,2.580046
5330.37,2.587272
5332.298,2.58472
5334.227,2.579527
5336.155,2.586087
5338.084,2.575927
5340.012,2.55797
5341.94,2.56678
5343.869,2.562958
5345.798,2.539408
5347.726,2.537694
5349.655,2.529689
5351.583,2.537222
5353.512,2.524901
5355.44,2.504697
5357.369,2.504174
5359.297,2.50016
5361.226,2.498516
5363.154,2.489865
5365.083,2.47829
5367.011,2.473049
5368.939,2.468191
5370.868,2.466778
5372.797,2.467534
5374.725,2.462187
5376.654,2.44963
5378.582,2.441697
5380.511,2.446674
5382.439,2.445822
5384.368,2.447285
5386.296,2.433028
5388.225,2.427785
5390.153,2.428014
5392.082,2.430157
5394.01,2.418866
5395.938,2.412265
5397.867,2.40754
5399.796,2.403816
5401.724,2.400481
5403.652,2.391742
5405.581,2.384189
5407.51,2.386469
5409.438,2.380246
5411.367,2.369954
5413.295,2.360778
5415.224,2.337014
5417.152,2.334737
5419.081,2.335467
5421.009,2.335576
5422.938,2.330053
5424.866,2.328613
5426.795,2.337357
5428.723,2.327261
5430.651,2.316343
5432.58,2.330501
5434.509,2.322871
5436.437,2.308478
5438.366,2.315581
5440.294,2.320358
5442.223,2.311121
5444.151,2.31775
5446.08,2.307771
5448.008,2.310492
5449.937,2.305053
5451.865,2.300137
5453.793,2.302129
5455.722,2.301973
5457.65,2.302627
5459.579,2.302851
5461.508,2.293643
5463.436,2.296481
5465.365,2.291742
5467.293,2.287551
5469.222,2.285112
5471.15,2.284755
5473.079,2.291564
5475.007,2.285137
5476.936,2.267547
5478.864,2.271879
5480.792,2.270721
5482.721,2.268889
5484.649,2.26756
5486.578,2.269735
5488.507,2.265116
5490.435,2.266448
5492.363,2.265727
5494.292,2.254902
5496.221,2.256852
5498.149,2.260766
5500.078,2.260358
5502.006,2.263178
5503.935,2.266768
5505.863,2.269646
5507.792,2.265673
5509.72,2.263259
5511.648,2.270328
5513.577,2.272759
5515.505,2.272587
5517.434,2.268368
5519.362,2.272842
5521.291,2.274734
5523.22,2.274862
5525.148,2.272843
5527.077,2.269926
5529.005,2.26472
5530.934,2.263896
5532.862,2.268479
5534.791,2.273426
5536.719,2.270879
5538.647,2.267751
5540.576,2.266775
5542.504,2.264308
5544.433,2.264345
5546.361,2.266623
5548.29,2.265873
5550.219,2.266197
5552.147,2.267131
5554.076,2.264215
5556.004,2.262553
5557.933,2.264802
5559.861,2.267201
5561.79,2.267214
5563.718,2.269729
5565.646,2.273617
5567.575,2.277995
5569.503,2.279965
5571.432,2.283103
5573.36,2.286489
5575.289,2.290293
5577.218,2.296849
5579.146,2.301669
5581.074,2.305701
5583.003,2.306942
5584.932,2.311189
5586.86,2.315357
5588.789,2.314831
5590.717,2.314821
5592.646,2.313281
5594.574,2.31129
5596.502,2.312421
5598.431,2.309921
5600.359,2.306397
5602.288,2.302915
5604.216,2.296111
5606.145,2.291569
5608.073,2.2874
5610.002,2.281325
5611.931,2.276103
5613.859,2.272106
5615.788,2.268776
5617.716,2.265594
5619.645,2.259937
5621.573,2.255991
5623.501,2.251799
5625.43,2.246946
5627.358,2.246833
5629.287,2.243592
5631.215,2.236651
5633.144,2.23366
5635.072,2.233924
5637.001,2.231315
5638.93,2.226667
5640.858,2.219025
5642.786,2.210402
5644.715,2.205345
5646.644,2.201647
5648.572,2.195013
5650.5,2.187929
5652.429,2.182337
5654.357,2.176796
5656.286,2.173979
5658.214,2.170531
5660.143,2.169175
5662.071,2.16912
5664.0,2.170731
5665.929,2.17093
5667.857,2.172026
5669.785,2.172523
5671.714,2.17488
5673.643,2.175504
5675.571,2.175855
5677.5,2.180254
5679.428,2.185446
5681.356,2.189224
5683.285,2.18822
5685.213,2.189141
5687.142,2.190355
5689.07,2.195056
5690.999,2.196968
5692.927,2.197818
5694.856,2.202867
5696.784,2.208339
5698.713,2.212298
5700.642,2.216074
5702.57,2.221764
5704.499,2.229466
5706.427,2.236006
5708.355,2.240231
5710.284,2.242314
5712.212,2.246373
5714.141,2.250925
5716.069,2.24655
5717.998,2.243466
5719.926,2.242979
5721.855,2.237882
5723.783,2.230184
5725.712,2.220008
5727.641,2.209972
5729.569,2.20384
5731.497,2.200125
5733.426,2.197139
5735.354,2.198349
5737.283,2.1986
5739.211,2.196557
5741.14,2.192681
5743.068,2.18974
5744.997,2.186999
5746.925,2.183626
5748.854,2.176983
5750.782,2.174988
5752.711,2.17559
5754.639,2.172873
5756.568,2.170394
5758.496,2.169785
5760.425,2.170266
5762.354,2.16804
5764.282,2.165846
5766.21,2.164527
5768.139,2.164885
5770.067,2.16708
5771.996,2.166312
5773.924,2.165887
5775.853,2.166684
5777.781,2.166839
5779.71,2.167174
5781.638,2.168007
5783.567,2.167487
5785.495,2.169555
5787.424,2.169874
5789.353,2.1661
5791.281,2.166734
5793.209,2.167099
5795.138,2.168988
5797.066,2.17174
5798.995,2.17043
5800.923,2.168752
5802.852,2.171384
5804.78,2.168958
5806.709,2.168989
5808.637,2.171452
5810.566,2.170638
5812.494,2.173569
5814.423,2.178142
5816.352,2.180395
5818.28,2.180432
5820.208,2.180813
5822.137,2.182348
5824.065,2.185014
5825.994,2.184392
5827.922,2.185912
5829.851,2.188297
5831.779,2.191814
5833.708,2.196414
5835.636,2.203204
5837.565,2.209238
5839.493,2.208511
5841.422,2.20792
5843.35,2.214365
5845.279,2.221338
5847.207,2.227312
5849.136,2.236717
5851.064,2.249125
5852.993,2.26189
5854.921,2.271556
5856.85,2.282218
5858.778,2.300186
5860.707,2.320876
5862.635,2.339805
5864.563,2.361245
5866.492,2.38532
5868.421,2.409798
5870.349,2.435277
5872.278,2.465426
5874.206,2.500772
5876.135,2.53653
5878.063,2.56837
5879.992,2.60353
5881.92,2.639482
5883.849,2.67189
5885.777,2.708066
5887.706,2.744083
5889.634,2.773808
5891.563,2.802296
5893.491,2.826646
5895.42,2.850747
5897.348,2.871207
5899.277,2.88483
5901.205,2.904418
5903.134,2.925835
5905.063,2.952199
5906.991,2.979099
5908.919,3.006356
5910.848,3.035698
5912.776,3.067292
5914.705,3.10886
5916.633,3.153182
5918.562,3.1963
5920.49,3.241028
5922.419,3.290666
5924.347,3.340563
5926.276,3.38864
5928.204,3.440417
5930.133,3.486137
5932.061,3.53369
5933.99,3.578323
5935.918,3.624562
5937.847,3.667115
5939.775,3.709869
5941.704,3.748634
5943.632,3.787208
5945.561,3.822538
5947.489,3.859054
5949.418,3.891447
5951.346,3.924358
5953.274,3.960294
5955.203,3.994935
5957.132,4.029936
5959.06,4.067225
5960.989,4.101988
5962.917,4.139487
5964.846,4.178811
5966.774,4.21964
5968.703,4.25648
5970.631,4.295711
5972.56,4.331024
5974.488,4.36609
5976.417,4.399734
5978.345,4.432701
5980.273,4.466129
5982.202,4.502269
5984.131,4.534533
5986.059,4.561377
5987.988,4.587545
5989.916,4.618946
5991.845,4.651947
5993.773,4.679949
5995.702,4.706193
5997.63,4.730515
5999.559,4.753955
6001.487,4.778395
6003.416,4.805891
6005.344,4.832722
6007.272,4.860013
6009.201,4.885189
6011.13,4.909886
6013.058,4.933702
6014.986,4.956173
6016.915,4.979367
6018.844,5.003208
6020.772,5.020926
6022.701,5.044538
6024.629,5.072613
6026.558,5.091998
6028.486,5.109446
6030.415,5.129497
6032.343,5.148361
6034.271,5.16395
6036.2,5.183036
6038.129,5.202523
6040.057,5.218468
6041.985,5.23394
6043.914,5.252967
6045.843,5.266063
6047.771,5.277189
6049.7,5.293036
6051.628,5.312724
6053.557,5.327698
6055.485,5.339046
6057.414,5.349573
6059.342,5.363698
6061.271,5.376156
6063.199,5.389501
6065.128,5.400524
6067.056,5.410079
6068.984,5.424791
6070.913,5.438458
6072.842,5.442729
6074.77,5.453765
6076.698,5.462269
6078.627,5.471587
6080.556,5.481071
6082.484,5.492586
6084.413,5.502949
6086.341,5.509858
6088.27,5.516994
6090.198,5.526373
6092.126,5.532354
6094.055,5.535897
6095.983,5.539388
6097.912,5.546179
6099.841,5.551184
6101.769,5.556045
6103.697,5.56178
6105.626,5.57194
6107.555,5.577735
6109.483,5.583886
6111.412,5.590826
6113.34,5.594331
6115.269,5.59703
6117.197,5.602663
6119.125,5.609643
6121.054,5.620663
6122.982,5.628122
6124.911,5.638068
6126.84,5.649663
6128.768,5.65976
6130.696,5.672225
6132.625,5.681944
6134.554,5.687888
6136.482,5.699175
6138.41,5.71049
6140.339,5.71819
6142.268,5.725787
6144.196,5.740034
6146.125,5.74938
6148.053,5.75725
6149.981,5.766984
6151.91,5.778957
6153.839,5.78688
6155.767,5.793831
6157.695,5.804753
6159.624,5.815208
6161.553,5.823581
6163.481,5.834143
