Wavenumber,Intensity
3999.706,1.738379
4001.634,1.741566
4003.563,1.742114
4005.491,1.739697
4007.42,1.743087
4009.348,1.743494
4011.277,1.740773
4013.205,1.740139
4015.134,1.736559
4017.062,1.736152
4018.991,1.736129
4020.919,1.73559
4022.848,1.732995
4024.776,1.733683
4026.705,1.73818
4028.633,1.740485
4030.562,1.738456
4032.49,1.738199
4034.419,1.741295
4036.347,1.743698
4038.276,1.739269
4040.204,1.737753
4042.133,1.741112
4044.061,1.741543
4045.99,1.741097
4047.918,1.742319
4049.847,1.742484
4051.775,1.745544
4053.704,1.746438
4055.632,1.745621
4057.561,1.745918
4059.489,1.742039
4061.418,1.740934
4063.346,1.744343
4065.275,1.748767
4067.203,1.750769
4069.132,1.744932
4071.06,1.739798
4072.989,1.739455
4074.917,1.74382
4076.846,1.745835
4078.774,1.745236
4080.703,1.74977
4082.631,1.749114
4084.56,1.751031
4086.488,1.74896
4088.417,1.745925
4090.345,1.743392
4092.274,1.743378
4094.202,1.744124
4096.131,1.741306
4098.059,1.744941
4099.988,1.74836
4101.916,1.746653
4103.845,1.749231
4105.773,1.750194
4107.702,1.748925
4109.63,1.747365
4111.559,1.748511
4113.487,1.746698
4115.416,1.748813
4117.344,1.751771
4119.273,1.747728
4121.201,1.748696
4123.13,1.752501
4125.058,1.753886
4126.987,1.754445
4128.915,1.753113
4130.844,1.752578
4132.772,1.750905
4134.701,1.751761
4136.629,1.754239
4138.558,1.755403
4140.486,1.755475
4142.415,1.753767
4144.343,1.752654
4146.271,1.755583
4148.2,1.754856
4150.129,1.754033
4152.057,1.754212
4153.986,1.755255
4155.914,1.755056
4157.843,1.754305
4159.771,1.75418
4161.7,1.755775
4163.628,1.753957
4165.557,1.754231
4167.485,1.757062
4169.414,1.758235
4171.342,1.757774
4173.271,1.75703
4175.199,1.75975
4177.127,1.763972
4179.056,1.766997
4180.985,1.76595
4182.913,1.767173
4184.842,1.7684
4186.77,1.765963
4188.699,1.765361
4190.627,1.769127
4192.556,1.772237
4194.484,1.771831
4196.413,1.772391
4198.341,1.777491
4200.27,1.781131
4202.198,1.780763
4204.126,1.779081
4206.055,1.779829
4207.983,1.783025
4209.912,1.788148
4211.841,1.789986
4213.769,1.791235
4215.698,1.793733
4217.626,1.792887
4219.555,1.795721
4221.483,1.798786
4223.412,1.799892
4225.34,1.79984
4227.269,1.801441
4229.197,1.80409
4231.125,1.804492
4233.054,1.806031
4234.982,1.8053
4236.911,1.806664
4238.84,1.807877
4240.768,1.807356
4242.697,1.806351
4244.625,1.803689
4246.554,1.798765
4248.482,1.798738
4250.411,1.801838
4252.339,1.802457
4254.268,1.801467
4256.196,1.804629
4258.125,1.80639
4260.053,1.809965
4261.981,1.812883
4263.91,1.816508
4265.838,1.819442
4267.767,1.820954
4269.696,1.822531
4271.624,1.820791
4273.553,1.819802
4275.481,1.824278
4277.41,1.824628
4279.338,1.825346
4281.267,1.824351
4283.195,1.824359
4285.124,1.826646
4287.052,1.828812
4288.98,1.831302
4290.909,1.834623
4292.837,1.833763
4294.766,1.834212
4296.694,1.834656
4298.623,1.832703
4300.552,1.832465
4302.48,1.833352
4304.409,1.833272
4306.337,1.830531
4308.266,1.825654
4310.194,1.823207
4312.123,1.824071
4314.051,1.820582
4315.979,1.815808
4317.908,1.817481
4319.836,1.812231
4321.765,1.810897
4323.693,1.811608
4325.622,1.811132
4327.551,1.810695
4329.479,1.815082
4331.408,1.819322
4333.336,1.817258
4335.265,1.816941
4337.193,1.819151
4339.122,1.823536
4341.05,1.825
4342.979,1.823567
4344.907,1.825036
4346.835,1.829624
4348.764,1.8337
4350.692,1.834774
4352.621,1.833001
4354.549,1.838029
4356.478,1.838603
4358.407,1.840536
4360.335,1.843047
4362.264,1.842899
4364.192,1.845915
4366.121,1.844889
4368.049,1.845309
4369.978,1.846014
4371.906,1.848247
4373.834,1.850832
4375.763,1.853281
4377.691,1.857625
4379.62,1.859873
4381.548,1.862839
4383.477,1.865533
4385.405,1.866278
4387.334,1.868734
4389.263,1.87297
4391.191,1.877368
4393.12,1.882598
4395.048,1.888584
4396.977,1.893049
4398.905,1.896647
4400.833,1.903447
4402.762,1.911876
4404.69,1.919023
4406.619,1.930942
4408.547,1.939306
4410.476,1.946893
4412.404,1.957893
4414.333,1.969017
4416.262,1.979301
4418.19,1.989011
4420.119,1.993954
4422.047,2.004252
4423.976,2.018574
4425.904,2.032888
4427.833,2.038504
4429.761,2.043121
4431.689,2.0478
4433.618,2.054926
4435.546,2.065434
4437.475,2.075756
4439.403,2.084019
4441.332,2.095978
4443.26,2.108366
4445.189,2.114536
4447.117,2.122185
4449.046,2.137306
4450.975,2.152735
4452.903,2.164653
4454.832,2.174986
4456.76,2.190675
4458.688,2.200475
4460.617,2.208926
4462.545,2.220333
4464.474,2.22654
4466.402,2.235016
4468.331,2.243672
4470.259,2.250523
4472.188,2.257258
4474.116,2.261977
4476.045,2.269942
4477.974,2.28071
4479.902,2.294083
4481.831,2.308244
4483.759,2.321844
4485.688,2.331497
4487.616,2.342887
4489.544,2.357269
4491.473,2.374849
4493.401,2.387393
4495.33,2.399377
4497.258,2.411625
4499.187,2.42326
4501.115,2.437756
4503.044,2.450754
4504.972,2.462764
4506.901,2.474505
4508.83,2.488545
4510.758,2.503422
4512.687,2.517324
4514.615,2.526714
4516.543,2.535696
4518.472,2.548792
4520.4,2.562895
4522.329,2.574851
4524.257,2.586241
4526.186,2.600348
4528.114,2.614017
4530.043,2.6264
4531.971,2.638053
4533.9,2.648762
4535.828,2.661327
4537.757,2.676508
4539.686,2.690543
4541.614,2.702387
4543.542,2.71875
4545.471,2.731432
4547.399,2.744383
4549.328,2.757747
4551.256,2.769544
4553.185,2.783341
4555.113,2.798333
4557.042,2.813845
4558.97,2.828631
4560.899,2.84428
4562.827,2.859964
4564.756,2.877011
4566.685,2.88475
4568.613,2.89395
4570.542,2.905984
4572.47,2.918476
4574.398,2.931482
4576.327,2.942507
4578.255,2.950737
4580.184,2.958021
4582.112,2.966536
4584.041,2.973979
4585.969,2.980279
4587.898,2.986213
4589.826,2.993108
4591.755,3.00038
4593.683,3.005517
4595.612,3.003519
4597.54,3.006394
4599.469,3.011906
4601.397,3.015512
4603.326,3.020237
4605.254,3.028353
4607.183,3.033641
4609.111,3.039262
4611.04,3.044064
4612.968,3.048895
4614.897,3.057028
4616.825,3.063845
4618.754,3.071306
4620.682,3.080058
4622.611,3.091618
4624.539,3.096599
4626.468,3.099603
4628.396,3.10626
4630.325,3.109293
4632.253,3.112505
4634.182,3.113326
4636.11,3.113907
4638.039,3.116837
4639.967,3.119856
4641.896,3.123016
4643.824,3.122488
4645.753,3.122946
4647.681,3.123686
4649.61,3.123009
4651.538,3.118813
4653.467,3.113961
4655.396,3.105334
4657.324,3.095896
4659.252,3.085733
4661.181,3.070455
4663.109,3.056951
4665.038,3.046539
4666.966,3.043188
4668.895,3.049689
4670.823,3.058735
4672.752,3.06831
4674.68,3.085242
4676.609,3.108653
4678.537,3.123364
4680.466,3.136618
4682.394,3.150062
4684.323,3.160293
4686.251,3.165459
4688.18,3.171279
4690.108,3.177477
4692.037,3.179232
4693.965,3.178512
4695.894,3.178579
4697.822,3.18175
4699.751,3.180099
4701.679,3.174755
4703.608,3.172385
4705.536,3.172302
4707.465,3.166474
4709.393,3.157053
4711.322,3.150903
4713.25,3.139668
4715.179,3.129287
4717.107,3.125182
4719.036,3.117733
4720.964,3.113156
4722.893,3.111951
4724.821,3.108057
4726.75,3.103314
4728.678,3.099525
4730.606,3.097606
4732.535,3.097623
4734.464,3.099051
4736.392,3.096758
4738.321,3.098228
4740.249,3.099852
4742.178,3.097407
4744.106,3.093663
4746.035,3.092687
4747.963,3.089223
4749.892,3.088886
4751.82,3.083576
4753.749,3.076266
4755.677,3.072731
4757.605,3.067372
4759.534,3.059181
4761.463,3.055108
4763.391,3.048856
4765.32,3.042418
4767.248,3.033855
4769.177,3.02235
4771.105,3.00822
4773.034,2.998133
4774.962,2.987235
4776.891,2.97968
4778.819,2.974283
4780.748,2.971538
4782.676,2.966994
4784.604,2.963455
4786.533,2.962966
4788.462,2.962219
4790.39,2.958854
4792.319,2.955732
4794.247,2.950092
4796.176,2.948083
4798.104,2.94817
4800.033,2.941555
4801.961,2.93523
4803.89,2.929087
4805.818,2.920583
4807.747,2.914256
4809.675,2.908222
4811.604,2.900255
4813.532,2.889264
4815.46,2.879297
4817.389,2.869073
4819.317,2.862222
4821.246,2.854439
4823.175,2.844713
4825.103,2.840867
4827.032,2.838756
4828.96,2.828103
4830.889,2.820705
4832.817,2.813419
4834.746,2.807148
4836.674,2.800057
4838.603,2.793241
4840.531,2.782025
4842.459,2.769106
4844.388,2.758496
4846.316,2.75097
4848.245,2.740683
4850.174,2.727046
4852.102,2.714943
4854.031,2.70758
4855.959,2.69877
4857.888,2.686314
4859.816,2.679208
4861.745,2.674041
4863.673,2.668612
4865.602,2.664932
4867.53,2.661901
4869.458,2.661855
4871.387,2.663331
4873.315,2.664614
4875.244,2.667656
4877.172,2.670321
4879.101,2.673253
4881.03,2.675502
4882.958,2.680513
4884.887,2.682943
4886.815,2.687454
4888.744,2.694073
4890.672,2.700196
4892.601,2.703879
4894.529,2.705506
4896.458,2.706447
4898.386,2.707842
4900.314,2.711613
4902.243,2.71528
4904.171,2.717917
4906.1,2.721143
4908.028,2.723739
4909.957,2.725212
4911.886,2.727077
4913.814,2.730046
4915.743,2.730263
4917.671,2.72799
4919.6,2.727452
4921.528,2.726872
4923.457,2.727834
4925.385,2.728781
4927.313,2.725037
4929.242,2.725065
4931.17,2.725862
4933.099,2.724081
4935.027,2.72431
4936.956,2.724877
4938.885,2.719982
4940.813,2.713765
4942.742,2.711077
4944.67,2.707506
4946.599,2.701702
4948.527,2.692117
4950.456,2.678054
4952.384,2.664474
4954.313,2.648151
4956.241,2.623853
4958.169,2.600509
4960.098,2.585234
4962.026,2.575009
4963.955,2.568591
4965.883,2.569162
4967.812,2.572886
4969.74,2.584138
4971.669,2.595108
4973.598,2.59782
4975.526,2.603144
4977.455,2.606121
4979.383,2.612755
4981.312,2.622268
4983.24,2.629968
4985.168,2.636696
4987.097,2.642912
4989.025,2.654727
4990.954,2.665496
4992.882,2.674125
4994.811,2.683442
4996.739,2.696748
4998.668,2.708736
5000.597,2.721636
5002.525,2.734309
5004.454,2.742042
5006.382,2.748056
5008.311,2.754903
5010.239,2.75658
5012.167,2.756016
5014.096,2.756737
5016.024,2.759715
5017.953,2.760081
5019.881,2.762194
5021.81,2.764356
5023.738,2.767649
5025.667,2.773907
5027.596,2.780195
5029.524,2.784023
5031.452,2.786299
5033.381,2.788826
5035.31,2.793224
5037.238,2.794849
5039.167,2.796018
5041.095,2.79743
5043.023,2.796859
5044.952,2.797344
5046.88,2.797859
5048.809,2.798322
5050.737,2.795136
5052.666,2.789032
5054.595,2.782726
5056.523,2.777703
5058.451,2.7708
5060.38,2.766278
5062.309,2.764603
5064.237,2.764787
5066.166,2.765818
5068.094,2.764955
5070.022,2.764999
5071.951,2.765164
5073.879,2.766412
5075.808,2.766306
5077.736,2.765875
5079.665,2.766108
5081.593,2.762656
5083.522,2.759908
5085.45,2.756175
5087.379,2.753554
5089.308,2.752113
5091.236,2.748634
5093.165,2.748034
5095.093,2.74777
5097.021,2.74587
5098.95,2.743612
5100.878,2.742438
5102.807,2.745506
5104.735,2.750573
5106.664,2.753414
5108.592,2.755222
5110.521,2.759565
5112.449,2.762153
5114.378,2.764712
5116.307,2.768114
5118.235,2.770559
5120.163,2.77373
5122.092,2.775492
5124.021,2.779952
5125.949,2.783312
5127.877,2.787371
5129.806,2.787571
5131.734,2.79206
5133.663,2.795359
5135.591,2.79101
5137.52,2.786895
5139.448,2.784774
5141.377,2.782297
5143.305,2.779927
5145.234,2.77673
5147.162,2.771407
5149.091,2.767276
5151.02,2.764285
5152.948,2.757401
5154.876,2.755005
5156.805,2.755836
5158.733,2.754117
5160.662,2.753039
5162.59,2.753123
5164.519,2.753577
5166.447,2.755411
5168.376,2.75646
5170.304,2.756773
5172.233,2.757347
5174.161,2.754676
5176.09,2.751799
5178.019,2.749755
5179.947,2.748647
5181.875,2.746553
5183.804,2.74582
5185.732,2.748602
5187.661,2.746466
5189.589,2.743902
5191.518,2.743231
5193.446,2.748518
5195.375,2.752125
5197.303,2.757766
5199.232,2.75341
5201.16,2.753966
5203.089,2.75603
5205.018,2.761048
5206.946,2.766806
5208.874,2.763238
5210.803,2.757838
5212.731,2.751918
5214.66,2.752512
5216.588,2.75533
5218.517,2.762304
5220.445,2.762287
5222.374,2.760323
5224.302,2.767889
5226.231,2.771463
5228.159,2.767259
5230.088,2.768984
5232.016,2.772099
5233.945,2.770056
5235.873,2.772448
5237.802,2.774865
5239.73,2.77964
5241.659,2.782
5243.587,2.790119
5245.516,2.795393
5247.444,2.798813
5249.373,2.79951
5251.301,2.795944
5253.229,2.800017
5255.158,2.801739
5257.087,2.798207
5259.015,2.797905
5260.944,2.806679
5262.872,2.810109
5264.801,2.811478
5266.729,2.806103
5268.658,2.799532
5270.586,2.798629
5272.515,2.79727
5274.443,2.796745
5276.372,2.79517
5278.3,2.797572
5280.229,2.801858
5282.157,2.803388
5284.086,2.805079
5286.014,2.805
5287.943,2.800385
5289.871,2.805516
5291.8,2.803203
5293.729,2.797368
5295.657,2.794433
5297.585,2.794126
5299.514,2.790283
5301.442,2.781267
5303.371,2.776675
5305.299,2.774848
5307.228,2.775246
5309.156,2.773006
5311.085,2.772586
5313.013,2.779736
5314.941,2.792131
5316.87,2.806877
5318.799,2.817342
5320.727,2.825234
5322.656,2.832778
5324.584,2.840208
5326.513,2.848521
5328.441,2.852943
5330.37,2.845782
5332.298,2.844766
5334.227,2.83802
5336.155,2.833238
5338.084,2.832356
5340.012,2.823232
5341.94,2.805656
5343.869,2.799038
5345.798,2.790741
5347.726,2.772909
5349.655,2.758117
5351.583,2.749286
5353.512,2.746905
5355.44,2.731484
5357.369,2.714579
5359.297,2.704432
5361.226,2.700121
5363.154,2.696842
5365.083,2.687797
5367.011,2.677021
5368.939,2.667273
5370.868,2.659476
5372.797,2.652238
5374.725,2.648346
5376.654,2.645682
5378.582,2.641862
5380.511,2.632335
5382.439,2.631558
5384.368,2.627683
5386.296,2.6258
5388.225,2.617507
5390.153,2.608381
5392.082,2.599792
5394.01,2.601239
5395.938,2.591165
5397.867,2.581604
5399.796,2.570857
5401.724,2.562657
5403.652,2.555063
5405.581,2.545293
5407.51,2.531713
5409.438,2.522252
5411.367,2.512037
5413.295,2.498413
5415.224,2.481846
5417.152,2.461171
5419.081,2.44859
5421.009,2.443515
5422.938,2.442155
5424.866,2.439014
5426.795,2.437265
5428.723,2.435781
5430.651,2.434273
5432.58,2.425175
5434.509,2.425439
5436.437,2.422775
5438.366,2.414927
5440.294,2.416599
5442.223,2.420732
5444.151,2.414078
5446.08,2.412791
5448.008,2.410068
5449.937,2.405776
5451.865,2.400831
5453.793,2.397945
5455.722,2.397299
5457.65,2.394615
5459.579,2.392706
5461.508,2.394895
5463.436,2.389464
5465.365,2.383036
5467.293,2.382214
5469.222,2.382156
5471.15,2.374417
5473.079,2.367352
5475.007,2.367802
5476.936,2.362286
5478.864,2.349106
5480.792,2.342277
5482.721,2.335963
5484.649,2.331938
5486.578,2.326641
5488.507,2.325094
5490.435,2.321929
5492.363,2.325325
5494.292,2.327011
5496.221,2.321323
5498.149,2.322019
5500.078,2.324818
5502.006,2.327518
5503.935,2.331527
5505.863,2.333676
5507.792,2.337143
5509.72,2.338633
5511.648,2.339113
5513.577,2.340286
5515.505,2.343314
5517.434,2.34635
5519.362,2.348844
5521.291,2.352671
5523.22,2.352157
5525.148,2.348
5527.077,2.345267
5529.005,2.345356
5530.934,2.346676
5532.862,2.347092
5534.791,2.345352
5536.719,2.343518
5538.647,2.340518
5540.576,2.3399
5542.504,2.335154
5544.433,2.331136
5546.361,2.33147
5548.29,2.334183
5550.219,2.330462
5552.147,2.331574
5554.076,2.336462
5556.004,2.335148
5557.933,2.335717
5559.861,2.339296
5561.79,2.343713
5563.718,2.350221
5565.646,2.357229
5567.575,2.36261
5569.503,2.369587
5571.432,2.377776
5573.36,2.384403
5575.289,2.392565
5577.218,2.404289
5579.146,2.416393
5581.074,2.425503
5583.003,2.430685
5584.932,2.439196
5586.86,2.444482
5588.789,2.445143
5590.717,2.445788
5592.646,2.441866
5594.574,2.438106
5596.502,2.43608
5598.431,2.43055
5600.359,2.424884
5602.288,2.416339
5604.216,2.40556
5606.145,2.396963
5608.073,2.3891
5610.002,2.378515
5611.931,2.368757
5613.859,2.363214
5615.788,2.357237
5617.716,2.345162
5619.645,2.329955
5621.573,2.323058
5623.501,2.321482
5625.43,2.313334
5627.358,2.303048
5629.287,2.296659
5631.215,2.289697
5633.144,2.281399
5635.072,2.272221
5637.001,2.261454
5638.93,2.250855
5640.858,2.241051
5642.786,2.224517
5644.715,2.207499
5646.644,2.190737
5648.572,2.167545
5650.5,2.144409
5652.429,2.120151
5654.357,2.095785
5656.286,2.07859
5658.214,2.062829
5660.143,2.05002
5662.071,2.045446
5664.0,2.044803
5665.929,2.047562
5667.857,2.054715
5669.785,2.061159
5671.714,2.069338
5673.643,2.080519
5675.571,2.092432
5677.5,2.107056
5679.428,2.123213
5681.356,2.133439
5683.285,2.138353
5685.213,2.145159
5687.142,2.156805
5689.07,2.166011
5690.999,2.174662
5692.927,2.185652
5694.856,2.197725
5696.784,2.210426
5698.713,2.225176
5700.642,2.240089
5702.57,2.256504
5704.499,2.271608
5706.427,2.286016
5708.355,2.298769
5710.284,2.305576
5712.212,2.311085
5714.141,2.318025
5716.069,2.31445
5717.998,2.309738
5719.926,2.302855
5721.855,2.284537
5723.783,2.261333
5725.712,2.233145
5727.641,2.202607
5729.569,2.1777
5731.497,2.163232
5733.426,2.154469
5735.354,2.152356
5737.283,2.15224
5739.211,2.147779
5741.14,2.136524
5743.068,2.12385
5744.997,2.112252
5746.925,2.096344
5748.854,2.080077
5750.782,2.068559
5752.711,2.058325
5754.639,2.044571
5756.568,2.036612
5758.496,2.0288
5760.425,2.019522
5762.354,2.008166
5764.282,2.003306
5766.21,1.997792
5768.139,1.989145
5770.067,1.985833
5771.996,1.981712
5773.924,1.979947
5775.853,1.982359
5777.781,1.986654
5779.71,1.989816
5781.638,1.991726
5783.567,1.993842
5785.495,1.999087
5787.424,2.005522
5789.353,2.007366
5791.281,2.010655
5793.209,2.015425
5795.138,2.02034
5797.066,2.024244
5798.995,2.02834
5800.923,2.03265
5802.852,2.038644
5804.78,2.03998
5806.709,2.045779
5808.637,2.052925
5810.566,2.061426
5812.494,2.071892
5814.423,2.078142
5816.352,2.081481
5818.28,2.088016
5820.208,2.097703
5822.137,2.105545
5824.065,2.114644
5825.994,2.121104
5827.922,2.13238
5829.851,2.144383
5831.779,2.155992
5833.708,2.166511
5835.636,2.181241
5837.565,2.193839
5839.493,2.205357
5841.422,2.221034
5843.35,2.241809
5845.279,2.261768
5847.207,2.282451
5849.136,2.311139
5851.064,2.343423
5852.993,2.376079
5854.921,2.409578
5856.85,2.446198
5858.778,2.490704
5860.707,2.541306
5862.635,2.593257
5864.563,2.646946
5866.492,2.705234
5868.421,2.763289
5870.349,2.824008
5872.278,2.885956
5874.206,2.94644
5876.135,3.01066
5878.063,3.07658
5879.992,3.139004
5881.92,3.198431
5883.849,3.252525
5885.777,3.307412
5887.706,3.35778
5889.634,3.40583
5891.563,3.44971
5893.491,3.481079
5895.42,3.516132
5897.348,3.553044
5899.277,3.578621
5901.205,3.608075
5903.134,3.644097
5905.063,3.682552
5906.991,3.718918
5908.919,3.759499
5910.848,3.806599
5912.776,3.853016
5914.705,3.901943
5916.633,3.952251
5918.562,4.000579
5920.49,4.049154
5922.419,4.09946
5924.347,4.1512
5926.276,4.197935
5928.204,4.244996
5930.133,4.290044
5932.061,4.337103
5933.99,4.376225
5935.918,4.417906
5937.847,4.455845
5939.775,4.495194
5941.704,4.537077
5943.632,4.573585
5945.561,4.603463
5947.489,4.640399
5949.418,4.677696
5951.346,4.715057
5953.274,4.756515
5955.203,4.796041
5957.132,4.83718
5959.06,4.884528
5960.989,4.931261
5962.917,4.9821
5964.846,5.032911
5966.774,5.088932
5968.703,5.14284
5970.631,5.197394
5972.56,5.245982
5974.488,5.295887
5976.417,5.347458
5978.345,5.397311
5980.273,5.441486
5982.202,5.486684
5984.131,5.529554
5986.059,5.569716
5987.988,5.60948
5989.916,5.653949
5991.845,5.695797
5993.773,5.731951
5995.702,5.770276
5997.63,5.807457
5999.559,5.843524
6001.487,5.877527
6003.416,5.909738
6005.344,5.944193
6007.272,5.979548
6009.201,6.010961
6011.13,6.045589
6013.058,6.083246
6014.986,6.116238
6016.915,6.151593
6018.844,6.188064
6020.772,6.221784
6022.701,6.253094
6024.629,6.291242
6026.558,6.317314
6028.486,6.348166
6030.415,6.378306
6032.343,6.406583
6034.271,6.431662
6036.2,6.459637
6038.129,6.483894
6040.057,6.502512
6041.985,6.525441
6043.914,6.552588
6045.843,6.573436
6047.771,6.592756
6049.7,6.616022
6051.628,6.646413
6053.557,6.664711
6055.485,6.683706
6057.414,6.69913
6059.342,6.715617
6061.271,6.730523
6063.199,6.748447
6065.128,6.762083
6067.056,6.771509
6068.984,6.785676
6070.913,6.801714
6072.842,6.814247
6074.77,6.831439
6076.698,6.844673
6078.627,6.857801
6080.556,6.872086
6082.484,6.885252
6084.413,6.896874
6086.341,6.912314
6088.27,6.920784
6090.198,6.923562
6092.126,6.921031
6094.055,6.916584
6095.983,6.903524
6097.912,6.882035
6099.841,6.85233
6101.769,6.820984
6103.697,6.796866
6105.626,6.78694
6107.555,6.781425
6109.483,6.785595
6111.412,6.803372
6113.34,6.825242
6115.269,6.844312
6117.197,6.870119
6119.125,6.899348
6121.054,6.929093
6122.982,6.95251
6124.911,6.978073
6126.84,7.008725
6128.768,7.037321
6130.696,7.057162
6132.625,7.080326
6134.554,7.102416
6136.482,7.126669
6138.41,7.147547
6140.339,7.168033
6142.268,7.187854
6144.196,7.211254
6146.125,7.228862
6148.053,7.242979
6149.981,7.256034
6151.91,7.274755
6153.839,7.290018
6155.767,7.305254
6157.695,7.320686
6159.624,7.334525
6161.553,7.34828
6163.481,7.363994
