Wavenumber,Intensity
3999.706,1.227147
4001.634,1.224806
4003.563,1.224305
4005.491,1.222638
4007.42,1.224013
4009.348,1.227468
4011.277,1.226553
4013.205,1.225124
4015.134,1.223
4017.062,1.225597
4018.991,1.226784
4020.919,1.226976
4022.848,1.227278
4024.776,1.229077
4026.705,1.229859
4028.633,1.231473
4030.562,1.230691
4032.49,1.232378
4034.419,1.233306
4036.347,1.23044
4038.276,1.231165
4040.204,1.234274
4042.133,1.234976
4044.061,1.23796
4045.99,1.238529
4047.918,1.2339
4049.847,1.234921
4051.775,1.237844
4053.704,1.235289
4055.632,1.233546
4057.561,1.235788
4059.489,1.232811
4061.418,1.233695
4063.346,1.240795
4065.275,1.242698
4067.203,1.239175
4069.132,1.23916
4071.06,1.24065
4072.989,1.241467
4074.917,1.24247
4076.846,1.243258
4078.774,1.24325
4080.703,1.242578
4082.631,1.241471
4084.56,1.236546
4086.488,1.23597
4088.417,1.237679
4090.345,1.236966
4092.274,1.242598
4094.202,1.243171
4096.131,1.240107
4098.059,1.241402
4099.988,1.244884
4101.916,1.248142
4103.845,1.247045
4105.773,1.241864
4107.702,1.23848
4109.63,1.241866
4111.559,1.243887
4113.487,1.242424
4115.416,1.24394
4117.344,1.246083
4119.273,1.246919
4121.201,1.243969
4123.13,1.245668
4125.058,1.242003
4126.987,1.243422
4128.915,1.246439
4130.844,1.243933
4132.772,1.246463
4134.701,1.247562
4136.629,1.241813
4138.558,1.23954
4140.486,1.245311
4142.415,1.247808
4144.343,1.247922
4146.271,1.246869
4148.2,1.246473
4150.129,1.246628
4152.057,1.247893
4153.986,1.245626
4155.914,1.24696
4157.843,1.246689
4159.771,1.242719
4161.7,1.244436
4163.628,1.248354
4165.557,1.248595
4167.485,1.249243
4169.414,1.249426
4171.342,1.249328
4173.271,1.251571
4175.199,1.254331
4177.127,1.255897
4179.056,1.252122
4180.985,1.253158
4182.913,1.253732
4184.842,1.256436
4186.77,1.258781
4188.699,1.260084
4190.627,1.260309
4192.556,1.259413
4194.484,1.261832
4196.413,1.261848
4198.341,1.258891
4200.27,1.261272
4202.198,1.263384
4204.126,1.266001
4206.055,1.263585
4207.983,1.263247
4209.912,1.2676
4211.841,1.269649
4213.769,1.267595
4215.698,1.269839
4217.626,1.273952
4219.555,1.273886
4221.483,1.273994
4223.412,1.272741
4225.34,1.272344
4227.269,1.271657
4229.197,1.272726
4231.125,1.272638
4233.054,1.272298
4234.982,1.275407
4236.911,1.277883
4238.84,1.278961
4240.768,1.276129
4242.697,1.276753
4244.625,1.276517
4246.554,1.274531
4248.482,1.272513
4250.411,1.272642
4252.339,1.276152
4254.268,1.27816
4256.196,1.279049
4258.125,1.278284
4260.053,1.28067
4261.981,1.283969
4263.91,1.284055
4265.838,1.285128
4267.767,1.286675
4269.696,1.283325
4271.624,1.281362
4273.553,1.283343
4275.481,1.285531
4277.41,1.286251
4279.338,1.286093
4281.267,1.289571
4283.195,1.293799
4285.124,1.291891
4287.052,1.288369
4288.98,1.287903
4290.909,1.29015
4292.837,1.291375
4294.766,1.293032
4296.694,1.29493
4298.623,1.293164
4300.552,1.291613
4302.48,1.292428
4304.409,1.295612
4306.337,1.294518
4308.266,1.292811
4310.194,1.292126
4312.123,1.288617
4314.051,1.288164
4315.979,1.288654
4317.908,1.285724
4319.836,1.283393
4321.765,1.28416
4323.693,1.284496
4325.622,1.283597
4327.551,1.283383
4329.479,1.284434
4331.408,1.28296
4333.336,1.282909
4335.265,1.283828
4337.193,1.286075
4339.122,1.292296
4341.05,1.292595
4342.979,1.290087
4344.907,1.290304
4346.835,1.287601
4348.764,1.289363
4350.692,1.29237
4352.621,1.294884
4354.549,1.296708
4356.478,1.295548
4358.407,1.2928
4360.335,1.293396
4362.264,1.294145
4364.192,1.29462
4366.121,1.294583
4368.049,1.297476
4369.978,1.295377
4371.906,1.296791
4373.834,1.298819
4375.763,1.298034
4377.691,1.296688
4379.62,1.296306
4381.548,1.300553
4383.477,1.300178
4385.405,1.296555
4387.334,1.297885
4389.263,1.297416
4391.191,1.296749
4393.12,1.299026
4395.048,1.299796
4396.977,1.299776
4398.905,1.301814
4400.833,1.305529
4402.762,1.305861
4404.69,1.307316
4406.619,1.312469
4408.547,1.317397
4410.476,1.321902
4412.404,1.328668
4414.333,1.33478
4416.262,1.339794
4418.19,1.346683
4420.119,1.352309
4422.047,1.359385
4423.976,1.371264
4425.904,1.380489
4427.833,1.39035
4429.761,1.400813
4431.689,1.409361
4433.618,1.420381
4435.546,1.433688
4437.475,1.447208
4439.403,1.46111
4441.332,1.473721
4443.26,1.48788
4445.189,1.502439
4447.117,1.518816
4449.046,1.535916
4450.975,1.550834
4452.903,1.565257
4454.832,1.580471
4456.76,1.599205
4458.688,1.617659
4460.617,1.633257
4462.545,1.64631
4464.474,1.658443
4466.402,1.675706
4468.331,1.691958
4470.259,1.706783
4472.188,1.719419
4474.116,1.73201
4476.045,1.749522
4477.974,1.767665
4479.902,1.784855
4481.831,1.800791
4483.759,1.81573
4485.688,1.831142
4487.616,1.847347
4489.544,1.863335
4491.473,1.882088
4493.401,1.898315
4495.33,1.915438
4497.258,1.930473
4499.187,1.950773
4501.115,1.971284
4503.044,1.983911
4504.972,2.000263
4506.901,2.02052
4508.83,2.036522
4510.758,2.05529
4512.687,2.077676
4514.615,2.094493
4516.543,2.108724
4518.472,2.127975
4520.4,2.145829
4522.329,2.161124
4524.257,2.175198
4526.186,2.189088
4528.114,2.207331
4530.043,2.224321
4531.971,2.239144
4533.9,2.255486
4535.828,2.272495
4537.757,2.290397
4539.686,2.310507
4541.614,2.328671
4543.542,2.346325
4545.471,2.364383
4547.399,2.379652
4549.328,2.397637
4551.256,2.415987
4553.185,2.433843
4555.113,2.452515
4557.042,2.471818
4558.97,2.493309
4560.899,2.512912
4562.827,2.530033
4564.756,2.546769
4566.685,2.56246
4568.613,2.576396
4570.542,2.591432
4572.47,2.606254
4574.398,2.619033
4576.327,2.634967
4578.255,2.646058
4580.184,2.653655
4582.112,2.666351
4584.041,2.680506
4585.969,2.690885
4587.898,2.70264
4589.826,2.715933
4591.755,2.724528
4593.683,2.731883
4595.612,2.73998
4597.54,2.746967
4599.469,2.753512
4601.397,2.759652
4603.326,2.765757
4605.254,2.772786
4607.183,2.781499
4609.111,2.78892
4611.04,2.79521
4612.968,2.802973
4614.897,2.808562
4616.825,2.813309
4618.754,2.821594
4620.682,2.830209
4622.611,2.839735
4624.539,2.847775
4626.468,2.855782
4628.396,2.864685
4630.325,2.87136
4632.253,2.874078
4634.182,2.876666
4636.11,2.879657
4638.039,2.883714
4639.967,2.887388
4641.896,2.89348
4643.824,2.895149
4645.753,2.894241
4647.681,2.893072
4649.61,2.8924
4651.538,2.88713
4653.467,2.878845
4655.396,2.868548
4657.324,2.856882
4659.252,2.841032
4661.181,2.828166
4663.109,2.815269
4665.038,2.802631
4666.966,2.799522
4668.895,2.806187
4670.823,2.817883
4672.752,2.830534
4674.68,2.848673
4676.609,2.874232
4678.537,2.894145
4680.466,2.909027
4682.394,2.922069
4684.323,2.937301
4686.251,2.947929
4688.18,2.953858
4690.108,2.957227
4692.037,2.959225
4693.965,2.961335
4695.894,2.963814
4697.822,2.96116
4699.751,2.96309
4701.679,2.964983
4703.608,2.961107
4705.536,2.957405
4707.465,2.954552
4709.393,2.947993
4711.322,2.943182
4713.25,2.94034
4715.179,2.937424
4717.107,2.928435
4719.036,2.915661
4720.964,2.906768
4722.893,2.895951
4724.821,2.888793
4726.75,2.881623
4728.678,2.870985
4730.606,2.865218
4732.535,2.862352
4734.464,2.858942
4736.392,2.853476
4738.321,2.850889
4740.249,2.847639
4742.178,2.8434
4744.106,2.837172
4746.035,2.832143
4747.963,2.824134
4749.892,2.819303
4751.82,2.815392
4753.749,2.80763
4755.677,2.802098
4757.605,2.795202
4759.534,2.787965
4761.463,2.777567
4763.391,2.766026
4765.32,2.756772
4767.248,2.744903
4769.177,2.73029
4771.105,2.716994
4773.034,2.704574
4774.962,2.693295
4776.891,2.68378
4778.819,2.672828
4780.748,2.667222
4782.676,2.662925
4784.604,2.658783
4786.533,2.655747
4788.462,2.653345
4790.39,2.649758
4792.319,2.646317
4794.247,2.64022
4796.176,2.634067
4798.104,2.627107
4800.033,2.621393
4801.961,2.610182
4803.89,2.600401
4805.818,2.593319
4807.747,2.585182
4809.675,2.573598
4811.604,2.560085
4813.532,2.551468
4815.46,2.537177
4817.389,2.522042
4819.317,2.510884
4821.246,2.501466
4823.175,2.488607
4825.103,2.477699
4827.032,2.471886
4828.96,2.45802
4830.889,2.445783
4832.817,2.438677
4834.746,2.431688
4836.674,2.418016
4838.603,2.404701
4840.531,2.391456
4842.459,2.376202
4844.388,2.361908
4846.316,2.348655
4848.245,2.330847
4850.174,2.316022
4852.102,2.301438
4854.031,2.286794
4855.959,2.271522
4857.888,2.259144
4859.816,2.249907
4861.745,2.242988
4863.673,2.236699
4865.602,2.228625
4867.53,2.218654
4869.458,2.214994
4871.387,2.218513
4873.315,2.21966
4875.244,2.221993
4877.172,2.225313
4879.101,2.23172
4881.03,2.233768
4882.958,2.235641
4884.887,2.239869
4886.815,2.243392
4888.744,2.248274
4890.672,2.253084
4892.601,2.257902
4894.529,2.264199
4896.458,2.268106
4898.386,2.27152
4900.314,2.276861
4902.243,2.278376
4904.171,2.27892
4906.1,2.282457
4908.028,2.284434
4909.957,2.284487
4911.886,2.283724
4913.814,2.283026
4915.743,2.282256
4917.671,2.281124
4919.6,2.282209
4921.528,2.281993
4923.457,2.282729
4925.385,2.282324
4927.313,2.277717
4929.242,2.277225
4931.17,2.277097
4933.099,2.275902
4935.027,2.274801
4936.956,2.268754
4938.885,2.264337
4940.813,2.264339
4942.742,2.261366
4944.67,2.251728
4946.599,2.242292
4948.527,2.230128
4950.456,2.211925
4952.384,2.191114
4954.313,2.169595
4956.241,2.14127
4958.169,2.112887
4960.098,2.08579
4962.026,2.067159
4963.955,2.057668
4965.883,2.052661
4967.812,2.05823
4969.74,2.068988
4971.669,2.079867
4973.598,2.087984
4975.526,2.094863
4977.455,2.100536
4979.383,2.105084
4981.312,2.11328
4983.24,2.122065
4985.168,2.13191
4987.097,2.142148
4989.025,2.155272
4990.954,2.168976
4992.882,2.180264
4994.811,2.191489
4996.739,2.209348
4998.668,2.224832
5000.597,2.239243
5002.525,2.24964
5004.454,2.254185
5006.382,2.262944
5008.311,2.270908
5010.239,2.274909
5012.167,2.276437
5014.096,2.278899
5016.024,2.280151
5017.953,2.279046
5019.881,2.282799
5021.81,2.288903
5023.738,2.296065
5025.667,2.304118
5027.596,2.307054
5029.524,2.312364
5031.452,2.318576
5033.381,2.31868
5035.31,2.31807
5037.238,2.32017
5039.167,2.323962
5041.095,2.325684
5043.023,2.323682
5044.952,2.322628
5046.88,2.325423
5048.809,2.32535
5050.737,2.319685
5052.666,2.315857
5054.595,2.311888
5056.523,2.301885
5058.451,2.29216
5060.38,2.287903
5062.309,2.287974
5064.237,2.283192
5066.166,2.280641
5068.094,2.283512
5070.022,2.285432
5071.951,2.284335
5073.879,2.285187
5075.808,2.283172
5077.736,2.283795
5079.665,2.282559
5081.593,2.27763
5083.522,2.273621
5085.45,2.272662
5087.379,2.268235
5089.308,2.26296
5091.236,2.259402
5093.165,2.257083
5095.093,2.255098
5097.021,2.25178
5098.95,2.247841
5100.878,2.247787
5102.807,2.251006
5104.735,2.253697
5106.664,2.259073
5108.592,2.262144
5110.521,2.266583
5112.449,2.271669
5114.378,2.27423
5116.307,2.275859
5118.235,2.279992
5120.163,2.28363
5122.092,2.283247
5124.021,2.284673
5125.949,2.288829
5127.877,2.290458
5129.806,2.293114
5131.734,2.295921
5133.663,2.296358
5135.591,2.296057
5137.52,2.29264
5139.448,2.287191
5141.377,2.283939
5143.305,2.280938
5145.234,2.276183
5147.162,2.273311
5149.091,2.268763
5151.02,2.263223
5152.948,2.256426
5154.876,2.252007
5156.805,2.248744
5158.733,2.246679
5160.662,2.244436
5162.59,2.24348
5164.519,2.241892
5166.447,2.242709
5168.376,2.245213
5170.304,2.243312
5172.233,2.238967
5174.161,2.241122
5176.09,2.238809
5178.019,2.234434
5179.947,2.233323
5181.875,2.232064
5183.804,2.23305
5185.732,2.229475
5187.661,2.228702
5189.589,2.227157
5191.518,2.227116
5193.446,2.229307
5195.375,2.232428
5197.303,2.233876
5199.232,2.233957
5201.16,2.236835
5203.089,2.244772
5205.018,2.25564
5206.946,2.247506
5208.874,2.236864
5210.803,2.230391
5212.731,2.232623
5214.66,2.234387
5216.588,2.236355
5218.517,2.233047
5220.445,2.2335
5222.374,2.240153
5224.302,2.246032
5226.231,2.241242
5228.159,2.238657
5230.088,2.241545
5232.016,2.244198
5233.945,2.245143
5235.873,2.248241
5237.802,2.249969
5239.73,2.250757
5241.659,2.25894
5243.587,2.267965
5245.516,2.270992
5247.444,2.270938
5249.373,2.263154
5251.301,2.267589
5253.229,2.275941
5255.158,2.273829
5257.087,2.270447
5259.015,2.275733
5260.944,2.278265
5262.872,2.277825
5264.801,2.272743
5266.729,2.271352
5268.658,2.271894
5270.586,2.266459
5272.515,2.263415
5274.443,2.26123
5276.372,2.257842
5278.3,2.262294
5280.229,2.266139
5282.157,2.266238
5284.086,2.269491
5286.014,2.268157
5287.943,2.270309
5289.871,2.27027
5291.8,2.261965
5293.729,2.260731
5295.657,2.25671
5297.585,2.2565
5299.514,2.248217
5301.442,2.242395
5303.371,2.238103
5305.299,2.237606
5307.228,2.233781
5309.156,2.229111
5311.085,2.233453
5313.013,2.239778
5314.941,2.248715
5316.87,2.261642
5318.799,2.272898
5320.727,2.282181
5322.656,2.291171
5324.584,2.300866
5326.513,2.303745
5328.441,2.295913
5330.37,2.296639
5332.298,2.291499
5334.227,2.287755
5336.155,2.291341
5338.084,2.282387
5340.012,2.26265
5341.94,2.257559
5343.869,2.248343
5345.798,2.23051
5347.726,2.216881
5349.655,2.197979
5351.583,2.189885
5353.512,2.172324
5355.44,2.1534
5357.369,2.142747
5359.297,2.136221
5361.226,2.129695
5363.154,2.117375
5365.083,2.100329
5367.011,2.089136
5368.939,2.079988
5370.868,2.069283
5372.797,2.061565
5374.725,2.059996
5376.654,2.050608
5378.582,2.037705
5380.511,2.033479
5382.439,2.03103
5384.368,2.028805
5386.296,2.013774
5388.225,2.001646
5390.153,1.993139
5392.082,1.986741
5394.01,1.974166
5395.938,1.961019
5397.867,1.94707
5399.796,1.936111
5401.724,1.926451
5403.652,1.913961
5405.581,1.901493
5407.51,1.893091
5409.438,1.880405
5411.367,1.863696
5413.295,1.844768
5415.224,1.818431
5417.152,1.804226
5419.081,1.793071
5421.009,1.787441
5422.938,1.782927
5424.866,1.77555
5426.795,1.77057
5428.723,1.762314
5430.651,1.752928
5432.58,1.755305
5434.509,1.748608
5436.437,1.742828
5438.366,1.748182
5440.294,1.747968
5442.223,1.73891
5444.151,1.7358
5446.08,1.727101
5448.008,1.723814
5449.937,1.718841
5451.865,1.714741
5453.793,1.711985
5455.722,1.710022
5457.65,1.710722
5459.579,1.710337
5461.508,1.700676
5463.436,1.695547
5465.365,1.690433
5467.293,1.688512
5469.222,1.685508
5471.15,1.678721
5473.079,1.67557
5475.007,1.666884
5476.936,1.654091
5478.864,1.654064
5480.792,1.647188
5482.721,1.64074
5484.649,1.637225
5486.578,1.634134
5488.507,1.625323
5490.435,1.624826
5492.363,1.626646
5494.292,1.621998
5496.221,1.621824
5498.149,1.626223
5500.078,1.626055
5502.006,1.626236
5503.935,1.629581
5505.863,1.63306
5507.792,1.632641
5509.72,1.631302
5511.648,1.632377
5513.577,1.635198
5515.505,1.64075
5517.434,1.639909
5519.362,1.642003
5521.291,1.644058
5523.22,1.640897
5525.148,1.637443
5527.077,1.640299
5529.005,1.641483
5530.934,1.639973
5532.862,1.642496
5534.791,1.64206
5536.719,1.636604
5538.647,1.630233
5540.576,1.630103
5542.504,1.630859
5544.433,1.629361
5546.361,1.628254
5548.29,1.626149
5550.219,1.625203
5552.147,1.626954
5554.076,1.625379
5556.004,1.623154
5557.933,1.626496
5559.861,1.629316
5561.79,1.633795
5563.718,1.639086
5565.646,1.645328
5567.575,1.653441
5569.503,1.660647
5571.432,1.668794
5573.36,1.677897
5575.289,1.686617
5577.218,1.695386
5579.146,1.702362
5581.074,1.708492
5583.003,1.71629
5584.932,1.721924
5586.86,1.725984
5588.789,1.726488
5590.717,1.730032
5592.646,1.725282
5594.574,1.718797
5596.502,1.717328
5598.431,1.710273
5600.359,1.701746
5602.288,1.695786
5604.216,1.686355
5606.145,1.679329
5608.073,1.669231
5610.002,1.660518
5611.931,1.649923
5613.859,1.635736
5615.788,1.62519
5617.716,1.618579
5619.645,1.6106
5621.573,1.601852
5623.501,1.591925
5625.43,1.583743
5627.358,1.57347
5629.287,1.566569
5631.215,1.555779
5633.144,1.546409
5635.072,1.539277
5637.001,1.531206
5638.93,1.523345
5640.858,1.511579
5642.786,1.499364
5644.715,1.485885
5646.644,1.471968
5648.572,1.452363
5650.5,1.43504
5652.429,1.422248
5654.357,1.407169
5656.286,1.395883
5658.214,1.38778
5660.143,1.383337
5662.071,1.378969
5664.0,1.380737
5665.929,1.385675
5667.857,1.38617
5669.785,1.387201
5671.714,1.390492
5673.643,1.398244
5675.571,1.401737
5677.5,1.405272
5679.428,1.412759
5681.356,1.418428
5683.285,1.424437
5685.213,1.42897
5687.142,1.437556
5689.07,1.44422
5690.999,1.45066
5692.927,1.460789
5694.856,1.4709
5696.784,1.481109
5698.713,1.491964
5700.642,1.499892
5702.57,1.511817
5704.499,1.525462
5706.427,1.539548
5708.355,1.548078
5710.284,1.555962
5712.212,1.561672
5714.141,1.566525
5716.069,1.567857
5717.998,1.566652
5719.926,1.559717
5721.855,1.549793
5723.783,1.535191
5725.712,1.513411
5727.641,1.492017
5729.569,1.474931
5731.497,1.460196
5733.426,1.452678
5735.354,1.449863
5737.283,1.446652
5739.211,1.43893
5741.14,1.431635
5743.068,1.427032
5744.997,1.418969
5746.925,1.408934
5748.854,1.397103
5750.782,1.39062
5752.711,1.385655
5754.639,1.383491
5756.568,1.380452
5758.496,1.375533
5760.425,1.373468
5762.354,1.371191
5764.282,1.367612
5766.21,1.366545
5768.139,1.364754
5770.067,1.365927
5771.996,1.365898
5773.924,1.363455
5775.853,1.366088
5777.781,1.368104
5779.71,1.367293
5781.638,1.365478
5783.567,1.364039
5785.495,1.366522
5787.424,1.368318
5789.353,1.365995
5791.281,1.366768
5793.209,1.368038
5795.138,1.36794
5797.066,1.370663
5798.995,1.372654
5800.923,1.373671
5802.852,1.375809
5804.78,1.374746
5806.709,1.377867
5808.637,1.379654
5810.566,1.382286
5812.494,1.385598
5814.423,1.38734
5816.352,1.389755
5818.28,1.392383
5820.208,1.396108
5822.137,1.40053
5824.065,1.404447
5825.994,1.40866
5827.922,1.415853
5829.851,1.422922
5831.779,1.430936
5833.708,1.439836
5835.636,1.451028
5837.565,1.457225
5839.493,1.464174
5841.422,1.47371
5843.35,1.486694
5845.279,1.502358
5847.207,1.516503
5849.136,1.534921
5851.064,1.558588
5852.993,1.580227
5854.921,1.603821
5856.85,1.637081
5858.778,1.67327
5860.707,1.71014
5862.635,1.750539
5864.563,1.790086
5866.492,1.836588
5868.421,1.886047
5870.349,1.938603
5872.278,1.995025
5874.206,2.057578
5876.135,2.121407
5878.063,2.184682
5879.992,2.249753
5881.92,2.316756
5883.849,2.382791
5885.777,2.445766
5887.706,2.50448
5889.634,2.559726
5891.563,2.607278
5893.491,2.654458
5895.42,2.697583
5897.348,2.732063
5899.277,2.765464
5901.205,2.798819
5903.134,2.832748
5905.063,2.875521
5906.991,2.919211
5908.919,2.968092
5910.848,3.02492
5912.776,3.091336
5914.705,3.160967
5916.633,3.232203
5918.562,3.309913
5920.49,3.397341
5922.419,3.485265
5924.347,3.576228
5926.276,3.665026
5928.204,3.751667
5930.133,3.837281
5932.061,3.920331
5933.99,4.000198
5935.918,4.080466
5937.847,4.155191
5939.775,4.22324
5941.704,4.289787
5943.632,4.354335
5945.561,4.413599
5947.489,4.47772
5949.418,4.539413
5951.346,4.599311
5953.274,4.655373
5955.203,4.71347
5957.132,4.772809
5959.06,4.833309
5960.989,4.895763
5962.917,4.95724
5964.846,5.0175
5966.774,5.080836
5968.703,5.143536
5970.631,5.208175
5972.56,5.263761
5974.488,5.318261
5976.417,5.373901
5978.345,5.429645
5980.273,5.480185
5982.202,5.532299
5984.131,5.582301
5986.059,5.630907
5987.988,5.678939
5989.916,5.732101
5991.845,5.773859
5993.773,5.815569
5995.702,5.858519
5997.63,5.903582
5999.559,5.94788
6001.487,5.990283
6003.416,6.027163
6005.344,6.068405
6007.272,6.107817
6009.201,6.149628
6011.13,6.188259
6013.058,6.225759
6014.986,6.263613
6016.915,6.302279
6018.844,6.342428
6020.772,6.378602
6022.701,6.408459
6024.629,6.445625
6026.558,6.477828
6028.486,6.509019
6030.415,6.540509
6032.343,6.572433
6034.271,6.600029
6036.2,6.630325
6038.129,6.658837
6040.057,6.683513
6041.985,6.709096
6043.914,6.738197
6045.843,6.758718
6047.771,6.785447
6049.7,6.808043
6051.628,6.829565
6053.557,6.850877
6055.485,6.877414
6057.414,6.898717
6059.342,6.918784
6061.271,6.936102
6063.199,6.958567
6065.128,6.976392
6067.056,6.997766
6068.984,7.0169
6070.913,7.03145
6072.842,7.044246
6074.77,7.065203
6076.698,7.081036
6078.627,7.094169
6080.556,7.105602
6082.484,7.122081
6084.413,7.136389
6086.341,7.151632
6088.27,7.160026
6090.198,7.170715
6092.126,7.179348
6094.055,7.187568
6095.983,7.195337
6097.912,7.201286
6099.841,7.201283
6101.769,7.206532
6103.697,7.211546
6105.626,7.219583
6107.555,7.223457
6109.483,7.232622
6111.412,7.243471
6113.34,7.2579
6115.269,7.271305
6117.197,7.287921
6119.125,7.298941
6121.054,7.317191
6122.982,7.33882
6124.911,7.359219
6126.84,7.372348
6128.768,7.389438
6130.696,7.408709
6132.625,7.428638
6134.554,7.444736
6136.482,7.463514
6138.41,7.477715
6140.339,7.495725
6142.268,7.51339
6144.196,7.531354
6146.125,7.549949
6148.053,7.566974
6149.981,7.578886
6151.91,7.596383
6153.839,7.614364
6155.767,7.632496
6157.695,7.648949
6159.624,7.664426
6161.553,7.678355
6163.481,7.699744
6165.409,7.713632
