Wavenumber,Intensity
3999.706,2.868411
4001.634,2.869948
4003.563,2.872571
4005.491,2.872049
4007.42,2.870634
4009.348,2.87392
4011.277,2.878549
4013.205,2.881397
4015.134,2.877041
4017.062,2.879617
4018.991,2.882183
4020.919,2.880361
4022.848,2.881809
4024.776,2.885051
4026.705,2.886631
4028.633,2.887866
4030.562,2.88726
4032.49,2.887933
4034.419,2.891928
4036.347,2.892921
4038.276,2.889337
4040.204,2.889582
4042.133,2.894901
4044.061,2.897129
4045.99,2.893512
4047.918,2.88935
4049.847,2.892298
4051.775,2.894987
4053.704,2.893473
4055.632,2.892308
4057.561,2.892205
4059.489,2.892199
4061.418,2.89329
4063.346,2.897519
4065.275,2.901824
4067.203,2.900543
4069.132,2.896196
4071.06,2.898555
4072.989,2.901014
4074.917,2.904516
4076.846,2.906974
4078.774,2.908412
4080.703,2.908918
4082.631,2.908383
4084.56,2.911512
4086.488,2.916082
4088.417,2.91903
4090.345,2.917954
4092.274,2.918287
4094.202,2.921123
4096.131,2.919806
4098.059,2.917878
4099.988,2.915201
4101.916,2.917593
4103.845,2.918548
4105.773,2.917511
4107.702,2.919123
4109.63,2.919262
4111.559,2.91759
4113.487,2.919514
4115.416,2.921367
4117.344,2.922389
4119.273,2.922122
4121.201,2.924673
4123.13,2.92527
4125.058,2.926223
4126.987,2.924367
4128.915,2.922615
4130.844,2.923958
4132.772,2.925424
4134.701,2.926505
4136.629,2.925588
4138.558,2.926358
4140.486,2.930094
4142.415,2.931296
4144.343,2.92929
4146.271,2.930188
4148.2,2.92974
4150.129,2.927775
4152.057,2.929035
4153.986,2.930861
4155.914,2.932662
4157.843,2.931743
4159.771,2.930757
4161.7,2.93411
4163.628,2.933288
4165.557,2.932295
4167.485,2.9331
4169.414,2.931649
4171.342,2.937031
4173.271,2.941303
4175.199,2.940609
4177.127,2.941503
4179.056,2.944319
4180.985,2.94512
4182.913,2.947772
4184.842,2.94987
4186.77,2.94941
4188.699,2.951008
4190.627,2.954526
4192.556,2.95992
4194.484,2.961466
4196.413,2.960565
4198.341,2.959472
4200.27,2.960615
4202.198,2.965514
4204.126,2.96867
4206.055,2.967832
4207.983,2.970338
4209.912,2.974154
4211.841,2.976427
4213.769,2.976445
4215.698,2.979124
4217.626,2.983042
4219.555,2.985359
4221.483,2.986745
4223.412,2.988564
4225.34,2.987977
4227.269,2.988056
4229.197,2.98799
4231.125,2.989452
4233.054,2.991431
4234.982,2.989832
4236.911,2.990248
4238.84,2.991452
4240.768,2.991755
4242.697,2.994101
4244.625,2.996825
4246.554,2.997231
4248.482,2.999287
4250.411,3.004296
4252.339,3.004539
4254.268,3.003133
4256.196,3.004157
4258.125,3.004432
4260.053,3.006824
4261.981,3.010519
4263.91,3.01697
4265.838,3.017467
4267.767,3.015888
4269.696,3.016772
4271.624,3.016171
4273.553,3.015342
4275.481,3.016422
4277.41,3.016865
4279.338,3.017582
4281.267,3.019058
4283.195,3.020437
4285.124,3.023623
4287.052,3.0263
4288.98,3.026115
4290.909,3.025737
4292.837,3.025805
4294.766,3.026768
4296.694,3.025649
4298.623,3.023709
4300.552,3.0226
4302.48,3.022199
4304.409,3.021114
4306.337,3.019696
4308.266,3.018664
4310.194,3.019554
4312.123,3.023611
4314.051,3.025646
4315.979,3.023261
4317.908,3.027286
4319.836,3.026118
4321.765,3.024763
4323.693,3.022912
4325.622,3.021919
4327.551,3.022906
4329.479,3.023963
4331.408,3.025296
4333.336,3.025235
4335.265,3.028541
4337.193,3.030106
4339.122,3.031671
4341.05,3.034825
4342.979,3.034762
4344.907,3.035521
4346.835,3.041309
4348.764,3.043452
4350.692,3.040677
4352.621,3.038143
4354.549,3.041957
4356.478,3.043411
4358.407,3.0439
4360.335,3.042569
4362.264,3.040109
4364.192,3.044397
4366.121,3.042825
4368.049,3.040037
4369.978,3.038003
4371.906,3.037696
4373.834,3.040218
4375.763,3.039048
4377.691,3.037757
4379.62,3.038133
4381.548,3.040781
4383.477,3.039248
4385.405,3.033145
4387.334,3.035473
4389.263,3.035872
4391.191,3.033858
4393.12,3.032015
4395.048,3.033426
4396.977,3.033914
4398.905,3.032613
4400.833,3.03452
4402.762,3.038213
4404.69,3.040354
4406.619,3.039573
4408.547,3.036819
4410.476,3.039618
4412.404,3.040365
4414.333,3.039945
4416.262,3.042595
4418.19,3.045756
4420.119,3.045434
4422.047,3.047309
4423.976,3.053221
4425.904,3.05751
4427.833,3.059215
4429.761,3.063483
4431.689,3.069619
4433.618,3.078505
4435.546,3.090777
4437.475,3.100254
4439.403,3.10568
4441.332,3.11655
4443.26,3.132761
4445.189,3.143611
4447.117,3.152539
4449.046,3.166204
4450.975,3.180251
4452.903,3.191511
4454.832,3.203799
4456.76,3.217145
4458.688,3.225294
4460.617,3.233979
4462.545,3.243677
4464.474,3.251413
4466.402,3.262302
4468.331,3.270495
4470.259,3.276106
4472.188,3.282032
4474.116,3.28778
4476.045,3.296559
4477.974,3.304234
4479.902,3.308707
4481.831,3.312216
4483.759,3.316616
4485.688,3.31864
4487.616,3.32212
4489.544,3.324709
4491.473,3.328321
4493.401,3.334307
4495.33,3.337517
4497.258,3.335445
4499.187,3.333046
4501.115,3.336677
4503.044,3.338874
4504.972,3.339221
4506.901,3.34313
4508.83,3.348552
4510.758,3.353402
4512.687,3.358335
4514.615,3.359364
4516.543,3.359091
4518.472,3.35975
4520.4,3.364203
4522.329,3.370469
4524.257,3.375299
4526.186,3.37715
4528.114,3.379285
4530.043,3.384991
4531.971,3.387891
4533.9,3.388312
4535.828,3.393219
4537.757,3.398648
4539.686,3.400152
4541.614,3.398744
4543.542,3.403744
4545.471,3.404149
4547.399,3.406262
4549.328,3.409566
4551.256,3.409668
4553.185,3.410987
4555.113,3.411764
4557.042,3.412156
4558.97,3.415943
4560.899,3.42081
4562.827,3.424887
4564.756,3.429086
4566.685,3.427893
4568.613,3.428755
4570.542,3.433591
4572.47,3.43872
4574.398,3.448633
4576.327,3.455621
4578.255,3.461376
4580.184,3.468619
4582.112,3.476495
4584.041,3.487844
4585.969,3.499479
4587.898,3.507961
4589.826,3.519848
4591.755,3.535619
4593.683,3.548455
4595.612,3.556387
4597.54,3.569551
4599.469,3.582256
4601.397,3.59526
4603.326,3.604717
4605.254,3.616398
4607.183,3.626548
4609.111,3.632517
4611.04,3.637699
4612.968,3.642788
4614.897,3.648572
4616.825,3.655675
4618.754,3.662948
4620.682,3.666899
4622.611,3.6752
4624.539,3.682503
4626.468,3.684991
4628.396,3.691347
4630.325,3.693968
4632.253,3.695605
4634.182,3.70185
4636.11,3.710542
4638.039,3.714947
4639.967,3.720038
4641.896,3.725774
4643.824,3.734091
4645.753,3.741174
4647.681,3.746473
4649.61,3.756636
4651.538,3.765581
4653.467,3.771156
4655.396,3.777687
4657.324,3.787487
4659.252,3.796886
4661.181,3.803149
4663.109,3.811172
4665.038,3.819816
4666.966,3.827269
4668.895,3.838348
4670.823,3.848482
4672.752,3.852097
4674.68,3.856079
4676.609,3.866199
4678.537,3.87142
4680.466,3.874911
4682.394,3.878217
4684.323,3.882373
4686.251,3.885478
4688.18,3.888098
4690.108,3.892594
4692.037,3.894924
4693.965,3.895133
4695.894,3.898591
4697.822,3.905406
4699.751,3.906876
4701.679,3.908264
4703.608,3.914966
4705.536,3.922853
4707.465,3.925974
4709.393,3.927156
4711.322,3.928739
4713.25,3.928184
4715.179,3.92843
4717.107,3.933154
4719.036,3.934153
4720.964,3.932055
4722.893,3.931771
4724.821,3.934542
4726.75,3.937025
4728.678,3.93996
4730.606,3.938988
4732.535,3.938755
4734.464,3.941323
4736.392,3.943502
4738.321,3.948649
4740.249,3.951245
4742.178,3.950379
4744.106,3.950918
4746.035,3.954312
4747.963,3.953772
4749.892,3.954301
4751.82,3.951487
4753.749,3.947361
4755.677,3.944809
4757.605,3.943296
4759.534,3.940644
4761.463,3.936895
4763.391,3.932927
4765.32,3.929398
4767.248,3.925744
4769.177,3.925511
4771.105,3.922851
4773.034,3.920113
4774.962,3.916862
4776.891,3.913773
4778.819,3.911378
4780.748,3.91097
4782.676,3.905381
4784.604,3.899374
4786.533,3.901066
4788.462,3.901051
4790.39,3.896312
4792.319,3.898247
4794.247,3.897268
4796.176,3.897119
4798.104,3.90056
4800.033,3.900712
4801.961,3.900085
4803.89,3.901191
4805.818,3.899356
4807.747,3.9001
4809.675,3.901516
4811.604,3.901792
4813.532,3.902281
4815.46,3.904793
4817.389,3.907821
4819.317,3.909269
4821.246,3.909399
4823.175,3.910136
4825.103,3.91219
4827.032,3.9152
4828.96,3.914868
4830.889,3.915684
4832.817,3.916293
4834.746,3.918055
4836.674,3.918452
4838.603,3.9164
4840.531,3.912449
4842.459,3.910172
4844.388,3.911557
4846.316,3.912167
4848.245,3.910928
4850.174,3.911058
4852.102,3.911025
4854.031,3.915567
4855.959,3.92037
4857.888,3.919496
4859.816,3.92244
4861.745,3.928384
4863.673,3.931272
4865.602,3.93086
4867.53,3.933119
4869.458,3.938435
4871.387,3.94344
4873.315,3.947612
4875.244,3.953261
4877.172,3.955514
4879.101,3.956719
4881.03,3.957567
4882.958,3.956919
4884.887,3.957218
4886.815,3.960951
4888.744,3.962788
4890.672,3.967711
4892.601,3.971179
4894.529,3.969987
4896.458,3.969285
4898.386,3.969198
4900.314,3.97051
4902.243,3.968227
4904.171,3.965216
4906.1,3.962244
4908.028,3.960096
4909.957,3.959177
4911.886,3.958657
4913.814,3.957898
4915.743,3.958597
4917.671,3.958154
4919.6,3.957371
4921.528,3.957075
4923.457,3.956195
4925.385,3.956762
4927.313,3.95363
4929.242,3.951483
4931.17,3.949169
4933.099,3.948019
4935.027,3.948322
4936.956,3.946544
4938.885,3.942667
4940.813,3.940753
4942.742,3.938884
4944.67,3.93656
4946.599,3.93734
4948.527,3.935355
4950.456,3.931993
4952.384,3.930717
4954.313,3.928399
4956.241,3.921999
4958.169,3.915894
4960.098,3.914356
4962.026,3.914404
4963.955,3.912431
4965.883,3.90905
4967.812,3.904464
4969.74,3.904588
4971.669,3.902633
4973.598,3.896564
4975.526,3.894063
4977.455,3.890593
4979.383,3.886247
4981.312,3.885201
4983.24,3.881161
4985.168,3.876386
4987.097,3.872869
4989.025,3.871425
4990.954,3.867579
4992.882,3.862082
4994.811,3.858639
4996.739,3.853406
4998.668,3.847793
5000.597,3.84364
5002.525,3.840295
5004.454,3.836712
5006.382,3.829639
5008.311,3.823983
5010.239,3.816069
5012.167,3.805553
5014.096,3.799954
5016.024,3.795616
5017.953,3.787645
5019.881,3.780459
5021.81,3.773884
5023.738,3.765154
5025.667,3.757499
5027.596,3.751764
5029.524,3.745165
5031.452,3.740954
5033.381,3.733121
5035.31,3.727343
5037.238,3.726026
5039.167,3.723021
5041.095,3.718887
5043.023,3.717472
5044.952,3.712906
5046.88,3.709865
5048.809,3.707679
5050.737,3.705892
5052.666,3.703282
5054.595,3.703513
5056.523,3.70301
5058.451,3.70313
5060.38,3.705125
5062.309,3.704294
5064.237,3.705482
5066.166,3.705236
5068.094,3.704716
5070.022,3.707402
5071.951,3.709038
5073.879,3.708208
5075.808,3.710571
5077.736,3.712463
5079.665,3.716831
5081.593,3.720503
5083.522,3.723554
5085.45,3.725976
5087.379,3.728758
5089.308,3.731926
5091.236,3.731893
5093.165,3.735095
5095.093,3.740716
5097.021,3.742097
5098.95,3.74091
5100.878,3.742488
5102.807,3.744838
5104.735,3.748251
5106.664,3.754548
5108.592,3.756671
5110.521,3.756244
5112.449,3.758206
5114.378,3.761672
5116.307,3.764366
5118.235,3.76274
5120.163,3.764496
5122.092,3.768101
5124.021,3.768537
5125.949,3.767304
5127.877,3.767087
5129.806,3.767449
5131.734,3.768101
5133.663,3.765984
5135.591,3.763975
5137.52,3.763853
5139.448,3.760946
5141.377,3.761488
5143.305,3.765132
5145.234,3.766133
5147.162,3.762963
5149.091,3.76281
5151.02,3.767526
5152.948,3.768526
5154.876,3.769633
5156.805,3.770824
5158.733,3.770774
5160.662,3.768842
5162.59,3.768447
5164.519,3.770093
5166.447,3.771224
5168.376,3.77296
5170.304,3.77515
5172.233,3.777509
5174.161,3.773184
5176.09,3.770698
5178.019,3.772821
5179.947,3.776817
5181.875,3.777534
5183.804,3.780188
5185.732,3.780244
5187.661,3.777402
5189.589,3.776225
5191.518,3.773499
5193.446,3.772537
5195.375,3.770433
5197.303,3.768638
5199.232,3.761993
5201.16,3.756885
5203.089,3.751597
5205.018,3.750865
5206.946,3.74753
5208.874,3.738348
5210.803,3.733746
5212.731,3.731074
5214.66,3.727706
5216.588,3.727573
5218.517,3.731742
5220.445,3.731096
5222.374,3.734238
5224.302,3.744061
5226.231,3.747631
5228.159,3.743695
5230.088,3.746426
5232.016,3.748633
5233.945,3.745456
5235.873,3.747919
5237.802,3.7526
5239.73,3.752205
5241.659,3.753412
5243.587,3.761147
5245.516,3.761423
5247.444,3.759506
5249.373,3.755231
5251.301,3.747791
5253.229,3.748845
5255.158,3.747786
5257.087,3.739366
5259.015,3.736112
5260.944,3.740186
5262.872,3.741587
5264.801,3.740996
5266.729,3.735787
5268.658,3.731234
5270.586,3.726015
5272.515,3.724006
5274.443,3.724324
5276.372,3.721896
5278.3,3.724052
5280.229,3.725724
5282.157,3.723941
5284.086,3.724505
5286.014,3.723881
5287.943,3.722626
5289.871,3.730361
5291.8,3.73061
5293.729,3.727946
5295.657,3.728797
5297.585,3.732074
5299.514,3.734591
5301.442,3.732993
5303.371,3.732994
5305.299,3.736032
5307.228,3.738996
5309.156,3.73905
5311.085,3.739612
5313.013,3.738217
5314.941,3.740473
5316.87,3.743288
5318.799,3.741892
5320.727,3.741684
5322.656,3.743629
5324.584,3.743304
5326.513,3.748364
5328.441,3.748942
5330.37,3.748204
5332.298,3.752752
5334.227,3.750242
5336.155,3.755917
5338.084,3.764241
5340.012,3.762484
5341.94,3.760937
5343.869,3.771661
5345.798,3.773328
5347.726,3.770732
5349.655,3.76901
5351.583,3.777293
5353.512,3.788956
5355.44,3.781452
5357.369,3.773602
5359.297,3.770547
5361.226,3.777219
5363.154,3.779824
5365.083,3.772407
5367.011,3.76721
5368.939,3.762172
5370.868,3.75733
5372.797,3.751836
5374.725,3.742573
5376.654,3.73627
5378.582,3.728545
5380.511,3.717991
5382.439,3.710242
5384.368,3.704953
5386.296,3.701165
5388.225,3.691396
5390.153,3.683837
5392.082,3.676295
5394.01,3.674183
5395.938,3.669418
5397.867,3.666401
5399.796,3.655978
5401.724,3.64946
5403.652,3.642397
5405.581,3.636576
5407.51,3.626925
5409.438,3.623502
5411.367,3.616323
5413.295,3.605264
5415.224,3.590414
5417.152,3.579518
5419.081,3.570942
5421.009,3.562217
5422.938,3.555092
5424.866,3.550849
5426.795,3.547256
5428.723,3.542676
5430.651,3.536691
5432.58,3.530806
5434.509,3.523662
5436.437,3.514092
5438.366,3.503845
5440.294,3.503446
5442.223,3.500768
5444.151,3.494518
5446.08,3.487839
5448.008,3.484093
5449.937,3.480312
5451.865,3.474373
5453.793,3.468733
5455.722,3.466385
5457.65,3.463695
5459.579,3.45982
5461.508,3.457401
5463.436,3.455683
5465.365,3.449509
5467.293,3.446633
5469.222,3.447026
5471.15,3.445518
5473.079,3.445539
5475.007,3.447811
5476.936,3.442113
5478.864,3.437587
5480.792,3.438926
5482.721,3.43677
5484.649,3.43704
5486.578,3.438868
5488.507,3.441411
5490.435,3.440716
5492.363,3.442697
5494.292,3.43902
5496.221,3.434569
5498.149,3.439807
5500.078,3.442064
5502.006,3.440129
5503.935,3.440907
5505.863,3.445082
5507.792,3.448303
5509.72,3.44881
5511.648,3.452824
5513.577,3.453133
5515.505,3.453482
5517.434,3.454004
5519.362,3.456194
5521.291,3.456328
5523.22,3.456977
5525.148,3.456313
5527.077,3.455586
5529.005,3.457124
5530.934,3.459188
5532.862,3.459795
5534.791,3.461065
5536.719,3.461143
5538.647,3.460913
5540.576,3.462932
5542.504,3.462926
5544.433,3.46809
5546.361,3.471043
5548.29,3.474271
5550.219,3.475653
5552.147,3.475735
5554.076,3.475719
5556.004,3.473474
5557.933,3.476403
5559.861,3.480527
5561.79,3.481797
5563.718,3.482285
5565.646,3.483985
5567.575,3.482686
5569.503,3.480939
5571.432,3.480728
5573.36,3.481724
5575.289,3.480602
5577.218,3.483051
5579.146,3.484668
5581.074,3.48548
5583.003,3.484685
5584.932,3.486533
5586.86,3.487821
5588.789,3.485754
5590.717,3.486852
5592.646,3.487442
5594.574,3.486012
5596.502,3.485838
5598.431,3.482965
5600.359,3.480954
5602.288,3.477428
5604.216,3.473448
5606.145,3.470829
5608.073,3.464041
5610.002,3.453844
5611.931,3.449158
5613.859,3.44584
5615.788,3.441183
5617.716,3.433593
5619.645,3.425876
5621.573,3.421939
5623.501,3.419477
5625.43,3.414704
5627.358,3.410313
5629.287,3.404715
5631.215,3.402295
5633.144,3.402584
5635.072,3.397722
5637.001,3.391081
5638.93,3.386236
5640.858,3.380181
5642.786,3.375132
5644.715,3.370975
5646.644,3.367642
5648.572,3.363945
5650.5,3.363311
5652.429,3.363198
5654.357,3.361522
5656.286,3.360059
5658.214,3.359489
5660.143,3.362193
5662.071,3.364394
5664.0,3.36358
5665.929,3.362571
5667.857,3.362391
5669.785,3.36302
5671.714,3.363172
5673.643,3.361198
5675.571,3.358458
5677.5,3.360582
5679.428,3.364062
5681.356,3.364484
5683.285,3.364528
5685.213,3.362905
5687.142,3.359483
5689.07,3.360244
5690.999,3.361062
5692.927,3.357001
5694.856,3.357648
5696.784,3.361706
5698.713,3.36085
5700.642,3.358559
5702.57,3.357359
5704.499,3.355747
5706.427,3.356201
5708.355,3.355765
5710.284,3.353696
5712.212,3.35243
5714.141,3.351615
5716.069,3.348615
5717.998,3.350291
5719.926,3.351357
5721.855,3.34564
5723.783,3.342297
5725.712,3.338948
5727.641,3.333021
5729.569,3.330423
5731.497,3.326568
5733.426,3.318799
5735.354,3.311715
5737.283,3.304271
5739.211,3.299046
5741.14,3.296143
5743.068,3.287875
5744.997,3.278648
5746.925,3.272944
5748.854,3.265976
5750.782,3.261378
5752.711,3.258711
5754.639,3.257158
5756.568,3.256566
5758.496,3.254985
5760.425,3.256536
5762.354,3.256208
5764.282,3.260574
5766.21,3.263011
5768.139,3.262873
5770.067,3.26389
5771.996,3.264258
5773.924,3.26328
5775.853,3.262101
5777.781,3.259344
5779.71,3.258092
5781.638,3.257959
5783.567,3.256832
5785.495,3.254215
5787.424,3.252403
5789.353,3.250411
5791.281,3.252973
5793.209,3.254078
5795.138,3.251862
5797.066,3.251132
5798.995,3.252859
5800.923,3.249677
5802.852,3.252023
5804.78,3.252183
5806.709,3.254997
5808.637,3.26213
5810.566,3.265356
5812.494,3.27087
5814.423,3.276288
5816.352,3.279107
5818.28,3.280729
5820.208,3.282849
5822.137,3.285256
5824.065,3.288505
5825.994,3.285546
5827.922,3.286518
5829.851,3.287032
5831.779,3.286094
5833.708,3.284831
5835.636,3.283046
5837.565,3.279928
5839.493,3.27438
5841.422,3.270581
5843.35,3.271244
5845.279,3.270144
5847.207,3.265757
5849.136,3.264777
5851.064,3.267741
5852.993,3.265373
5854.921,3.259577
5856.85,3.258177
5858.778,3.256786
5860.707,3.259565
5862.635,3.263289
5864.563,3.266718
5866.492,3.268582
5868.421,3.271172
5870.349,3.277193
5872.278,3.28465
5874.206,3.29273
5876.135,3.303463
5878.063,3.311329
5879.992,3.316478
5881.92,3.32282
5883.849,3.327162
5885.777,3.330315
5887.706,3.332988
5889.634,3.332653
5891.563,3.333349
5893.491,3.329482
5895.42,3.330551
5897.348,3.333099
5899.277,3.332463
5901.205,3.332184
5903.134,3.328612
5905.063,3.326048
5906.991,3.32486
5908.919,3.326609
5910.848,3.335584
5912.776,3.348481
5914.705,3.373771
5916.633,3.403771
5918.562,3.445902
5920.49,3.498715
5922.419,3.564586
5924.347,3.638741
5926.276,3.722777
5928.204,3.814021
5930.133,3.905591
5932.061,4.002952
5933.99,4.09437
5935.918,4.1887
5937.847,4.283478
5939.775,4.377468
5941.704,4.468047
5943.632,4.554261
5945.561,4.636158
5947.489,4.716259
5949.418,4.789114
5951.346,4.860523
5953.274,4.927392
5955.203,4.989627
5957.132,5.045813
5959.06,5.102295
5960.989,5.153776
5962.917,5.20648
5964.846,5.257237
5966.774,5.303603
5968.703,5.344597
5970.631,5.385889
5972.56,5.424052
5974.488,5.460869
5976.417,5.495699
5978.345,5.531489
5980.273,5.563199
5982.202,5.591645
5984.131,5.617218
5986.059,5.641034
5987.988,5.664041
5989.916,5.687903
5991.845,5.706229
5993.773,5.72526
5995.702,5.743466
5997.63,5.756237
5999.559,5.768613
6001.487,5.780919
6003.416,5.79419
6005.344,5.808392
6007.272,5.823624
6009.201,5.836595
6011.13,5.849683
6013.058,5.860353
6014.986,5.870831
6016.915,5.885756
6018.844,5.898526
6020.772,5.905335
6022.701,5.915302
6024.629,5.930426
6026.558,5.93527
6028.486,5.940702
6030.415,5.950079
6032.343,5.960453
6034.271,5.965712
6036.2,5.969081
6038.129,5.975077
6040.057,5.978863
6041.985,5.979962
6043.914,5.983441
6045.843,5.981932
6047.771,5.979699
6049.7,5.982274
6051.628,5.991808
6053.557,5.988512
6055.485,5.986055
6057.414,5.986677
6059.342,5.985652
6061.271,5.984323
6063.199,5.985464
6065.128,5.986896
6067.056,5.986232
6068.984,5.986031
6070.913,5.987146
6072.842,5.981852
6074.77,5.983043
6076.698,5.980334
6078.627,5.976649
6080.556,5.980012
6082.484,5.98421
6084.413,5.983255
6086.341,5.983049
6088.27,5.983995
6090.198,5.987449
6092.126,5.988592
6094.055,5.985986
6095.983,5.986287
6097.912,5.988965
6099.841,5.993588
6101.769,5.997859
6103.697,6.002717
6105.626,6.012168
6107.555,6.022201
6109.483,6.029284
6111.412,6.034564
6113.34,6.042914
6115.269,6.053847
6117.197,6.06493
6119.125,6.072722
6121.054,6.084533
6122.982,6.096648
6124.911,6.111146
6126.84,6.127162
6128.768,6.141337
6130.696,6.154051
6132.625,6.167198
6134.554,6.181895
6136.482,6.202445
6138.41,6.223873
6140.339,6.247309
6142.268,6.271218
6144.196,6.295288
6146.125,6.317173
6148.053,6.341256
6149.981,6.368934
6151.91,6.39782
6153.839,6.425776
6155.767,6.457526
6157.695,6.490151
6159.624,6.523198
6161.553,6.560405
6163.481,6.600023
