Wavenumber,Intensity
3999.706,2.942806
4001.634,2.941994
4003.563,2.941879
4005.491,2.940414
4007.42,2.943097
4009.348,2.947837
4011.277,2.944974
4013.205,2.941266
4015.134,2.939924
4017.062,2.944643
4018.991,2.947911
4020.919,2.950684
4022.848,2.951088
4024.776,2.95084
4026.705,2.955625
4028.633,2.95947
4030.562,2.954407
4032.49,2.955001
4034.419,2.959618
4036.347,2.956691
4038.276,2.954416
4040.204,2.95557
4042.133,2.959814
4044.061,2.964869
4045.99,2.965755
4047.918,2.964111
4049.847,2.96607
4051.775,2.966405
4053.704,2.965137
4055.632,2.968436
4057.561,2.967237
4059.489,2.96369
4061.418,2.967299
4063.346,2.973945
4065.275,2.973652
4067.203,2.971804
4069.132,2.975665
4071.06,2.977424
4072.989,2.976014
4074.917,2.976763
4076.846,2.979701
4078.774,2.980493
4080.703,2.978857
4082.631,2.976848
4084.56,2.975272
4086.488,2.976305
4088.417,2.977688
4090.345,2.976599
4092.274,2.978378
4094.202,2.979029
4096.131,2.978175
4098.059,2.980093
4099.988,2.983528
4101.916,2.988148
4103.845,2.989173
4105.773,2.986691
4107.702,2.98229
4109.63,2.986513
4111.559,2.989042
4113.487,2.984722
4115.416,2.986281
4117.344,2.991968
4119.273,2.992476
4121.201,2.989777
4123.13,2.989268
4125.058,2.98849
4126.987,2.992064
4128.915,2.993268
4130.844,2.991146
4132.772,2.991463
4134.701,2.99396
4136.629,2.99318
4138.558,2.990214
4140.486,2.991341
4142.415,2.995162
4144.343,2.995749
4146.271,2.99381
4148.2,2.996276
4150.129,2.99676
4152.057,2.99621
4153.986,2.996235
4155.914,2.999527
4157.843,2.999616
4159.771,2.996047
4161.7,2.997508
4163.628,3.00101
4165.557,3.002501
4167.485,3.004447
4169.414,3.00714
4171.342,3.011383
4173.271,3.009829
4175.199,3.008797
4177.127,3.015023
4179.056,3.016674
4180.985,3.01517
4182.913,3.013104
4184.842,3.013418
4186.77,3.015348
4188.699,3.019169
4190.627,3.019919
4192.556,3.021058
4194.484,3.030041
4196.413,3.035751
4198.341,3.031904
4200.27,3.034731
4202.198,3.039747
4204.126,3.04011
4206.055,3.039406
4207.983,3.043041
4209.912,3.048985
4211.841,3.04976
4213.769,3.049816
4215.698,3.053664
4217.626,3.058314
4219.555,3.060313
4221.483,3.059966
4223.412,3.058978
4225.34,3.059398
4227.269,3.061082
4229.197,3.066314
4231.125,3.068394
4233.054,3.066182
4234.982,3.068204
4236.911,3.074475
4238.84,3.075963
4240.768,3.071323
4242.697,3.071459
4244.625,3.070998
4246.554,3.070091
4248.482,3.068447
4250.411,3.068344
4252.339,3.069246
4254.268,3.071939
4256.196,3.074126
4258.125,3.075726
4260.053,3.080492
4261.981,3.084246
4263.91,3.086509
4265.838,3.089712
4267.767,3.093651
4269.696,3.092209
4271.624,3.090666
4273.553,3.094802
4275.481,3.096748
4277.41,3.097726
4279.338,3.101562
4281.267,3.10347
4283.195,3.105228
4285.124,3.103151
4287.052,3.099785
4288.98,3.101323
4290.909,3.105658
4292.837,3.107464
4294.766,3.107116
4296.694,3.108281
4298.623,3.108977
4300.552,3.110018
4302.48,3.109891
4304.409,3.109363
4306.337,3.106698
4308.266,3.106276
4310.194,3.106168
4312.123,3.1038
4314.051,3.101977
4315.979,3.100073
4317.908,3.097888
4319.836,3.094446
4321.765,3.091736
4323.693,3.091774
4325.622,3.094925
4327.551,3.095528
4329.479,3.095425
4331.408,3.095818
4333.336,3.096898
4335.265,3.100541
4337.193,3.103511
4339.122,3.104559
4341.05,3.10499
4342.979,3.103553
4344.907,3.105823
4346.835,3.104805
4348.764,3.10723
4350.692,3.111335
4352.621,3.113935
4354.549,3.115846
4356.478,3.115015
4358.407,3.114829
4360.335,3.116009
4362.264,3.11631
4364.192,3.114671
4366.121,3.116087
4368.049,3.123477
4369.978,3.124914
4371.906,3.125914
4373.834,3.126624
4375.763,3.126026
4377.691,3.123316
4379.62,3.123038
4381.548,3.128151
4383.477,3.129525
4385.405,3.127675
4387.334,3.128236
4389.263,3.130556
4391.191,3.133218
4393.12,3.13768
4395.048,3.14001
4396.977,3.139727
4398.905,3.142246
4400.833,3.145148
4402.762,3.150189
4404.69,3.157175
4406.619,3.164438
4408.547,3.172527
4410.476,3.178967
4412.404,3.184966
4414.333,3.192009
4416.262,3.196767
4418.19,3.204639
4420.119,3.212888
4422.047,3.222622
4423.976,3.233399
4425.904,3.241048
4427.833,3.251194
4429.761,3.261276
4431.689,3.268405
4433.618,3.277241
4435.546,3.28605
4437.475,3.2979
4439.403,3.310988
4441.332,3.322221
4443.26,3.33288
4445.189,3.343706
4447.117,3.352122
4449.046,3.363734
4450.975,3.380187
4452.903,3.394975
4454.832,3.404916
4456.76,3.417473
4458.688,3.429183
4460.617,3.443588
4462.545,3.454334
4464.474,3.464745
4466.402,3.480106
4468.331,3.493043
4470.259,3.501854
4472.188,3.512081
4474.116,3.524462
4476.045,3.540977
4477.974,3.551008
4479.902,3.560974
4481.831,3.574301
4483.759,3.588075
4485.688,3.601523
4487.616,3.609471
4489.544,3.62115
4491.473,3.636107
4493.401,3.648295
4495.33,3.662759
4497.258,3.674984
4499.187,3.687713
4501.115,3.702397
4503.044,3.713777
4504.972,3.726079
4506.901,3.74047
4508.83,3.754516
4510.758,3.768086
4512.687,3.783644
4514.615,3.796729
4516.543,3.810671
4518.472,3.828418
4520.4,3.843139
4522.329,3.854176
4524.257,3.866741
4526.186,3.879194
4528.114,3.894265
4530.043,3.909266
4531.971,3.919435
4533.9,3.934794
4535.828,3.950348
4537.757,3.968673
4539.686,3.985661
4541.614,3.99788
4543.542,4.012463
4545.471,4.031751
4547.399,4.04678
4549.328,4.063794
4551.256,4.078918
4553.185,4.093491
4555.113,4.1109
4557.042,4.130887
4558.97,4.14885
4560.899,4.162795
4562.827,4.179244
4564.756,4.19672
4566.685,4.20925
4568.613,4.221131
4570.542,4.235877
4572.47,4.25265
4574.398,4.265105
4576.327,4.27531
4578.255,4.285259
4580.184,4.291738
4582.112,4.30296
4584.041,4.31665
4585.969,4.327216
4587.898,4.333349
4589.826,4.34316
4591.755,4.354602
4593.683,4.366154
4595.612,4.37265
4597.54,4.378916
4599.469,4.3859
4601.397,4.39083
4603.326,4.394604
4605.254,4.399317
4607.183,4.406395
4609.111,4.414481
4611.04,4.424043
4612.968,4.429841
4614.897,4.432277
4616.825,4.437584
4618.754,4.446007
4620.682,4.45387
4622.611,4.462744
4624.539,4.469707
4626.468,4.476636
4628.396,4.485678
4630.325,4.492323
4632.253,4.492036
4634.182,4.494188
4636.11,4.497862
4638.039,4.50242
4639.967,4.50564
4641.896,4.510068
4643.824,4.510914
4645.753,4.509868
4647.681,4.509451
4649.61,4.507747
4651.538,4.503433
4653.467,4.49753
4655.396,4.490955
4657.324,4.479564
4659.252,4.464776
4661.181,4.453965
4663.109,4.442771
4665.038,4.432513
4666.966,4.432046
4668.895,4.439528
4670.823,4.450083
4672.752,4.462033
4674.68,4.478095
4676.609,4.499173
4678.537,4.519235
4680.466,4.533716
4682.394,4.545149
4684.323,4.557348
4686.251,4.565412
4688.18,4.57056
4690.108,4.57542
4692.037,4.580852
4693.965,4.582448
4695.894,4.584702
4697.822,4.584205
4699.751,4.58603
4701.679,4.587678
4703.608,4.587311
4705.536,4.588431
4707.465,4.586942
4709.393,4.582613
4711.322,4.579933
4713.25,4.57689
4715.179,4.572857
4717.107,4.567737
4719.036,4.560275
4720.964,4.552249
4722.893,4.543836
4724.821,4.538914
4726.75,4.532171
4728.678,4.524009
4730.606,4.519291
4732.535,4.513007
4734.464,4.510095
4736.392,4.50913
4738.321,4.506663
4740.249,4.503537
4742.178,4.500472
4744.106,4.497298
4746.035,4.490976
4747.963,4.483891
4749.892,4.478302
4751.82,4.474025
4753.749,4.470756
4755.677,4.468944
4757.605,4.464267
4759.534,4.455731
4761.463,4.447669
4763.391,4.439205
4765.32,4.432049
4767.248,4.423036
4769.177,4.410439
4771.105,4.397418
4773.034,4.386898
4774.962,4.376196
4776.891,4.366673
4778.819,4.362158
4780.748,4.35902
4782.676,4.356007
4784.604,4.352968
4786.533,4.350699
4788.462,4.347714
4790.39,4.343089
4792.319,4.339398
4794.247,4.338935
4796.176,4.335255
4798.104,4.326846
4800.033,4.32287
4801.961,4.317272
4803.89,4.309733
4805.818,4.305952
4807.747,4.298429
4809.675,4.286654
4811.604,4.275362
4813.532,4.268126
4815.46,4.261557
4817.389,4.249454
4819.317,4.236473
4821.246,4.22999
4823.175,4.219705
4825.103,4.207875
4827.032,4.202121
4828.96,4.195911
4830.889,4.187247
4832.817,4.179077
4834.746,4.172969
4836.674,4.164484
4838.603,4.154191
4840.531,4.143236
4842.459,4.132207
4844.388,4.118979
4846.316,4.105492
4848.245,4.090826
4850.174,4.078074
4852.102,4.068561
4854.031,4.059165
4855.959,4.048456
4857.888,4.039345
4859.816,4.033246
4861.745,4.026543
4863.673,4.017889
4865.602,4.01109
4867.53,4.005246
4869.458,4.004257
4871.387,4.005357
4873.315,4.006758
4875.244,4.00947
4877.172,4.011666
4879.101,4.01654
4881.03,4.018967
4882.958,4.023694
4884.887,4.028809
4886.815,4.032023
4888.744,4.035239
4890.672,4.04095
4892.601,4.043425
4894.529,4.045922
4896.458,4.0526
4898.386,4.054271
4900.314,4.055696
4902.243,4.055848
4904.171,4.059818
4906.1,4.064803
4908.028,4.067301
4909.957,4.070043
4911.886,4.069379
4913.814,4.068579
4915.743,4.067047
4917.671,4.064538
4919.6,4.063946
4921.528,4.061996
4923.457,4.0607
4925.385,4.059236
4927.313,4.058879
4929.242,4.058627
4931.17,4.060412
4933.099,4.062324
4935.027,4.061308
4936.956,4.059388
4938.885,4.056279
4940.813,4.054607
4942.742,4.053849
4944.67,4.047869
4946.599,4.039871
4948.527,4.02751
4950.456,4.011092
4952.384,3.994744
4954.313,3.97665
4956.241,3.952577
4958.169,3.932321
4960.098,3.913444
4962.026,3.895665
4963.955,3.886366
4965.883,3.88597
4967.812,3.891487
4969.74,3.899238
4971.669,3.907606
4973.598,3.914548
4975.526,3.921014
4977.455,3.926557
4979.383,3.931744
4981.312,3.936474
4983.24,3.942596
4985.168,3.952837
4987.097,3.962372
4989.025,3.970899
4990.954,3.982016
4992.882,3.993025
4994.811,4.003096
4996.739,4.015876
4998.668,4.03052
5000.597,4.043854
5002.525,4.050623
5004.454,4.057141
5006.382,4.065164
5008.311,4.071611
5010.239,4.073181
5012.167,4.074661
5014.096,4.077096
5016.024,4.076727
5017.953,4.077339
5019.881,4.08197
5021.81,4.088156
5023.738,4.092696
5025.667,4.096613
5027.596,4.0999
5029.524,4.105901
5031.452,4.111372
5033.381,4.115085
5035.31,4.115191
5037.238,4.115225
5039.167,4.119976
5041.095,4.119382
5043.023,4.119068
5044.952,4.119309
5046.88,4.118241
5048.809,4.118354
5050.737,4.11479
5052.666,4.110659
5054.595,4.111199
5056.523,4.103989
5058.451,4.094097
5060.38,4.089436
5062.309,4.092086
5064.237,4.088304
5066.166,4.086795
5068.094,4.087866
5070.022,4.088218
5071.951,4.089927
5073.879,4.092895
5075.808,4.090714
5077.736,4.089478
5079.665,4.089239
5081.593,4.084323
5083.522,4.085873
5085.45,4.085937
5087.379,4.079806
5089.308,4.077771
5091.236,4.076792
5093.165,4.072631
5095.093,4.068011
5097.021,4.065845
5098.95,4.066407
5100.878,4.067936
5102.807,4.070186
5104.735,4.073262
5106.664,4.074884
5108.592,4.077158
5110.521,4.082479
5112.449,4.087454
5114.378,4.08899
5116.307,4.091194
5118.235,4.097495
5120.163,4.100027
5122.092,4.101487
5124.021,4.103675
5125.949,4.10537
5127.877,4.105327
5129.806,4.106624
5131.734,4.110639
5133.663,4.11179
5135.591,4.111352
5137.52,4.110441
5139.448,4.109674
5141.377,4.10684
5143.305,4.103417
5145.234,4.097284
5147.162,4.094052
5149.091,4.089571
5151.02,4.087004
5152.948,4.080404
5154.876,4.076397
5156.805,4.075394
5158.733,4.072073
5160.662,4.069976
5162.59,4.07299
5164.519,4.075113
5166.447,4.074877
5168.376,4.074434
5170.304,4.073319
5172.233,4.070009
5174.161,4.069798
5176.09,4.069379
5178.019,4.067037
5179.947,4.067348
5181.875,4.067162
5183.804,4.06823
5185.732,4.066298
5187.661,4.062138
5189.589,4.063822
5191.518,4.066258
5193.446,4.06615
5195.375,4.068643
5197.303,4.073669
5199.232,4.070075
5201.16,4.069904
5203.089,4.073267
5205.018,4.083728
5206.946,4.086339
5208.874,4.078017
5210.803,4.069355
5212.731,4.068365
5214.66,4.068781
5216.588,4.072093
5218.517,4.074931
5220.445,4.073948
5222.374,4.075767
5224.302,4.08208
5226.231,4.082863
5228.159,4.078566
5230.088,4.081079
5232.016,4.086656
5233.945,4.087425
5235.873,4.087471
5237.802,4.088953
5239.73,4.090169
5241.659,4.094922
5243.587,4.104701
5245.516,4.106875
5247.444,4.106504
5249.373,4.105517
5251.301,4.105874
5253.229,4.11178
5255.158,4.115291
5257.087,4.110184
5259.015,4.107231
5260.944,4.11117
5262.872,4.116917
5264.801,4.115891
5266.729,4.109575
5268.658,4.107975
5270.586,4.101447
5272.515,4.101371
5274.443,4.101734
5276.372,4.097921
5278.3,4.103795
5280.229,4.109591
5282.157,4.106981
5284.086,4.108751
5286.014,4.107837
5287.943,4.107215
5289.871,4.115679
5291.8,4.11024
5293.729,4.102611
5295.657,4.099508
5297.585,4.098039
5299.514,4.097934
5301.442,4.095044
5303.371,4.089663
5305.299,4.086509
5307.228,4.084404
5309.156,4.080927
5311.085,4.080142
5313.013,4.08672
5314.941,4.100266
5316.87,4.112393
5318.799,4.120994
5320.727,4.129672
5322.656,4.136822
5324.584,4.143843
5326.513,4.147597
5328.441,4.144934
5330.37,4.141209
5332.298,4.138064
5334.227,4.133488
5336.155,4.135312
5338.084,4.131448
5340.012,4.119018
5341.94,4.10749
5343.869,4.104816
5345.798,4.093677
5347.726,4.076877
5349.655,4.057495
5351.583,4.046517
5353.512,4.04115
5355.44,4.027439
5357.369,4.012486
5359.297,4.005016
5361.226,4.000233
5363.154,3.99277
5365.083,3.982019
5367.011,3.97285
5368.939,3.960851
5370.868,3.95134
5372.797,3.948998
5374.725,3.946589
5376.654,3.942672
5378.582,3.934987
5380.511,3.925461
5382.439,3.924151
5384.368,3.923061
5386.296,3.918217
5388.225,3.905208
5390.153,3.895007
5392.082,3.89265
5394.01,3.887622
5395.938,3.876772
5397.867,3.862976
5399.796,3.851314
5401.724,3.845134
5403.652,3.836595
5405.581,3.825504
5407.51,3.814586
5409.438,3.809319
5411.367,3.798077
5413.295,3.782727
5415.224,3.761164
5417.152,3.739573
5419.081,3.728272
5421.009,3.724639
5422.938,3.725034
5424.866,3.721253
5426.795,3.716311
5428.723,3.712877
5430.651,3.706111
5432.58,3.704719
5434.509,3.701757
5436.437,3.698502
5438.366,3.697999
5440.294,3.701014
5442.223,3.698223
5444.151,3.694682
5446.08,3.691055
5448.008,3.683939
5449.937,3.67742
5451.865,3.670873
5453.793,3.668596
5455.722,3.666897
5457.65,3.664964
5459.579,3.66538
5461.508,3.666323
5463.436,3.661959
5465.365,3.652941
5467.293,3.651913
5469.222,3.651067
5471.15,3.642475
5473.079,3.642642
5475.007,3.640644
5476.936,3.629067
5478.864,3.622974
5480.792,3.618376
5482.721,3.614448
5484.649,3.609167
5486.578,3.604141
5488.507,3.600925
5490.435,3.599558
5492.363,3.604554
5494.292,3.603137
5496.221,3.600609
5498.149,3.600231
5500.078,3.599005
5502.006,3.599493
5503.935,3.603197
5505.863,3.609055
5507.792,3.612491
5509.72,3.611212
5511.648,3.610917
5513.577,3.611658
5515.505,3.615948
5517.434,3.61738
5519.362,3.618791
5521.291,3.619908
5523.22,3.618581
5525.148,3.616326
5527.077,3.616344
5529.005,3.612802
5530.934,3.612844
5532.862,3.614154
5534.791,3.615114
5536.719,3.612474
5538.647,3.608344
5540.576,3.60623
5542.504,3.607304
5544.433,3.606923
5546.361,3.605166
5548.29,3.603719
5550.219,3.603649
5552.147,3.602848
5554.076,3.602997
5556.004,3.605077
5557.933,3.606907
5559.861,3.607102
5561.79,3.610478
5563.718,3.617249
5565.646,3.62408
5567.575,3.629055
5569.503,3.63485
5571.432,3.643347
5573.36,3.653939
5575.289,3.660352
5577.218,3.668748
5579.146,3.673079
5581.074,3.679432
5583.003,3.688055
5584.932,3.690788
5586.86,3.692189
5588.789,3.692047
5590.717,3.696461
5592.646,3.694642
5594.574,3.69127
5596.502,3.690883
5598.431,3.685427
5600.359,3.677316
5602.288,3.671945
5604.216,3.664138
5606.145,3.657644
5608.073,3.647727
5610.002,3.637221
5611.931,3.629446
5613.859,3.620061
5615.788,3.611976
5617.716,3.607618
5619.645,3.602134
5621.573,3.593393
5623.501,3.581721
5625.43,3.571573
5627.358,3.563688
5629.287,3.556972
5631.215,3.54711
5633.144,3.537917
5635.072,3.532715
5637.001,3.526531
5638.93,3.519411
5640.858,3.509163
5642.786,3.498375
5644.715,3.48135
5646.644,3.466394
5648.572,3.450126
5650.5,3.434468
5652.429,3.416932
5654.357,3.396901
5656.286,3.382064
5658.214,3.371759
5660.143,3.363148
5662.071,3.356573
5664.0,3.355399
5665.929,3.358039
5667.857,3.361667
5669.785,3.368684
5671.714,3.375391
5673.643,3.386275
5675.571,3.390876
5677.5,3.395061
5679.428,3.405247
5681.356,3.4135
5683.285,3.421326
5685.213,3.426321
5687.142,3.433282
5689.07,3.441251
5690.999,3.449675
5692.927,3.459395
5694.856,3.468649
5696.784,3.482623
5698.713,3.494249
5700.642,3.502147
5702.57,3.510915
5704.499,3.523854
5706.427,3.540093
5708.355,3.549111
5710.284,3.555751
5712.212,3.562614
5714.141,3.564422
5716.069,3.567185
5717.998,3.568694
5719.926,3.563645
5721.855,3.553335
5723.783,3.539459
5725.712,3.519629
5727.641,3.494374
5729.569,3.476848
5731.497,3.464813
5733.426,3.457689
5735.354,3.450788
5737.283,3.442059
5739.211,3.433547
5741.14,3.428766
5743.068,3.422067
5744.997,3.411499
5746.925,3.399124
5748.854,3.384077
5750.782,3.374577
5752.711,3.367155
5754.639,3.359587
5756.568,3.351626
5758.496,3.343506
5760.425,3.336141
5762.354,3.331859
5764.282,3.327824
5766.21,3.321232
5768.139,3.313469
5770.067,3.309554
5771.996,3.308582
5773.924,3.308219
5775.853,3.3116
5777.781,3.310384
5779.71,3.315099
5781.638,3.320256
5783.567,3.319338
5785.495,3.321615
5787.424,3.323137
5789.353,3.323482
5791.281,3.328407
5793.209,3.333597
5795.138,3.337465
5797.066,3.341628
5798.995,3.343901
5800.923,3.344066
5802.852,3.348184
5804.78,3.352594
5806.709,3.356114
5808.637,3.357536
5810.566,3.360771
5812.494,3.369195
5814.423,3.37576
5816.352,3.379273
5818.28,3.384821
5820.208,3.390218
5822.137,3.394458
5824.065,3.402868
5825.994,3.413451
5827.922,3.419921
5829.851,3.429239
5831.779,3.439305
5833.708,3.447976
5835.636,3.456747
5837.565,3.46402
5839.493,3.471911
5841.422,3.48136
5843.35,3.496324
5845.279,3.514382
5847.207,3.531634
5849.136,3.549995
5851.064,3.572658
5852.993,3.59527
5854.921,3.618133
5856.85,3.647074
5858.778,3.681628
5860.707,3.717387
5862.635,3.752905
5864.563,3.78825
5866.492,3.830069
5868.421,3.8751
5870.349,3.922242
5872.278,3.971401
5874.206,4.02741
5876.135,4.085036
5878.063,4.141852
5879.992,4.197851
5881.92,4.258935
5883.849,4.318233
5885.777,4.371499
5887.706,4.423295
5889.634,4.472396
5891.563,4.517353
5893.491,4.557167
5895.42,4.591912
5897.348,4.623552
5899.277,4.65533
5901.205,4.689077
5903.134,4.721716
5905.063,4.760061
5906.991,4.799998
5908.919,4.840641
5910.848,4.890233
5912.776,4.951816
5914.705,5.015909
5916.633,5.080253
5918.562,5.147298
5920.49,5.223243
5922.419,5.300174
5924.347,5.380628
5926.276,5.458969
5928.204,5.538255
5930.133,5.614018
5932.061,5.686843
5933.99,5.760461
5935.918,5.832139
5937.847,5.897284
5939.775,5.961497
5941.704,6.023795
5943.632,6.083375
5945.561,6.137164
5947.489,6.19378
5949.418,6.249249
5951.346,6.304119
5953.274,6.359297
5955.203,6.411945
5957.132,6.464357
5959.06,6.523936
5960.989,6.585815
5962.917,6.644973
5964.846,6.703022
5966.774,6.764477
5968.703,6.82537
5970.631,6.886951
5972.56,6.940002
5974.488,6.995887
5976.417,7.053325
5978.345,7.110208
5980.273,7.156355
5982.202,7.205664
5984.131,7.256794
5986.059,7.302709
5987.988,7.348634
5989.916,7.398643
5991.845,7.442524
5993.773,7.486629
5995.702,7.527339
5997.63,7.573609
5999.559,7.619307
6001.487,7.659165
6003.416,7.696228
6005.344,7.737391
6007.272,7.774948
6009.201,7.817365
6011.13,7.856734
6013.058,7.895431
6014.986,7.929838
6016.915,7.968403
6018.844,8.006836
6020.772,8.043687
6022.701,8.076736
6024.629,8.112515
6026.558,8.147299
6028.486,8.181745
6030.415,8.211928
6032.343,8.240372
6034.271,8.265395
6036.2,8.295759
6038.129,8.327482
6040.057,8.354363
6041.985,8.378014
6043.914,8.406631
6045.843,8.431867
6047.771,8.455659
6049.7,8.478697
6051.628,8.50319
6053.557,8.522804
6055.485,8.549065
6057.414,8.573434
6059.342,8.596861
6061.271,8.613828
6063.199,8.632872
6065.128,8.651348
6067.056,8.673527
6068.984,8.689463
6070.913,8.702406
6072.842,8.719613
6074.77,8.740808
6076.698,8.75928
6078.627,8.77435
6080.556,8.787996
6082.484,8.805957
6084.413,8.816476
6086.341,8.832261
6088.27,8.843873
6090.198,8.851071
6092.126,8.863972
6094.055,8.876057
6095.983,8.882054
6097.912,8.890545
6099.841,8.898819
6101.769,8.907164
6103.697,8.916267
6105.626,8.924592
6107.555,8.929567
6109.483,8.940352
6111.412,8.952413
6113.34,8.965186
6115.269,8.980336
6117.197,8.995521
6119.125,9.008075
6121.054,9.025413
6122.982,9.04208
6124.911,9.055908
6126.84,9.064601
6128.768,9.082439
6130.696,9.103978
6132.625,9.122353
6134.554,9.135848
6136.482,9.150535
6138.41,9.16655
6140.339,9.187416
6142.268,9.205603
6144.196,9.221378
6146.125,9.235386
6148.053,9.252846
6149.981,9.267078
6151.91,9.280945
6153.839,9.297729
6155.767,9.313295
6157.695,9.331499
6159.624,9.347002
6161.553,9.36023
6163.481,9.377777
